; Refractive index spectrum of BLEACHED Dow/Shipley S1800 positive photoresist
; Measured with VASE, Q. Wang, NIST, April 2015
;
; lambda/um    n        k
0.19258  1.39678  0.78362
0.19417  1.40244  0.74468
0.19576  1.45559  0.78919
0.19734  1.50709  0.78452
0.19893  1.56136  0.80037
0.20052  1.61736  0.79892
0.20210  1.67359  0.79650
0.20369  1.72820  0.78372
0.20528  1.78018  0.76610
0.20687  1.82803  0.74003
0.20845  1.86878  0.70942
0.21004  1.90344  0.67578
0.21163  1.93108  0.63971
0.21322  1.95145  0.60485
0.21481  1.96800  0.57208
0.21639  1.98124  0.54027
0.21798  1.99074  0.51017
0.21957  1.99857  0.48295
0.22116  2.00580  0.45662
0.22275  2.01153  0.43100
0.22433  2.01608  0.40659
0.22592  2.02045  0.38316
0.22751  2.02484  0.35952
0.22910  2.02825  0.33481
0.23069  2.02977  0.31018
0.23228  2.03098  0.28552
0.23387  2.03055  0.25901
0.23545  2.02677  0.23203
0.23704  2.02020  0.20620
0.23863  2.01301  0.18048
0.24022  2.00059  0.15107
0.24181  1.97746  0.12798
0.24340  1.95657  0.11651
0.24499  1.94113  0.10591
0.24658  1.92525  0.09516
0.24817  1.90901  0.08650
0.24975  1.89316  0.07983
0.25134  1.87795  0.07493
0.25293  1.86352  0.07160
0.25452  1.84999  0.06964
0.25611  1.83739  0.06888
0.25770  1.82587  0.06917
0.25929  1.81549  0.07019
0.26088  1.80603  0.07170
0.26247  1.79734  0.07373
0.26406  1.78946  0.07632
0.26565  1.78244  0.07943
0.26724  1.77632  0.08295
0.26883  1.77104  0.08678
0.27042  1.76656  0.09102
0.27201  1.76305  0.09571
0.27360  1.76069  0.10074
0.27519  1.75961  0.10597
0.27678  1.75996  0.11129
0.27837  1.76211  0.11634
0.27996  1.76596  0.12036
0.28155  1.77094  0.12297
0.28314  1.77665  0.12427
0.28473  1.78303  0.12432
0.28632  1.79017  0.12307
0.28791  1.79842  0.11992
0.28950  1.80715  0.11342
0.29109  1.81402  0.10314
0.29268  1.81742  0.09073
0.29428  1.81711  0.07790
0.29587  1.81344  0.06612
0.29746  1.80750  0.05657
0.29905  1.80065  0.04934
0.30064  1.79368  0.04414
0.30223  1.78716  0.04051
0.30382  1.78132  0.03793
0.30541  1.77614  0.03597
0.30700  1.77153  0.03445
0.30859  1.76746  0.03318
0.31018  1.76385  0.03202
0.31177  1.76060  0.03086
0.31337  1.75759  0.02964
0.31496  1.75471  0.02839
0.31655  1.75191  0.02712
0.31814  1.74917  0.02585
0.31973  1.74646  0.02462
0.32132  1.74377  0.02343
0.32291  1.74108  0.02231
0.32450  1.73840  0.02128
0.32610  1.73571  0.02038
0.32769  1.73305  0.01965
0.32928  1.73050  0.01911
0.33087  1.72810  0.01874
0.33246  1.72592  0.01849
0.33405  1.72401  0.01829
0.33564  1.72235  0.01800
0.33724  1.72084  0.01752
0.33883  1.71932  0.01686
0.34042  1.71771  0.01613
0.34201  1.71604  0.01544
0.34360  1.71437  0.01481
0.34519  1.71275  0.01420
0.34679  1.71115  0.01359
0.34838  1.70956  0.01300
0.34997  1.70797  0.01242
0.35156  1.70639  0.01189
0.35315  1.70485  0.01141
0.35475  1.70337  0.01094
0.35634  1.70192  0.01046
0.35793  1.70048  0.00998
0.35952  1.69904  0.00952
0.36111  1.69761  0.00909
0.36271  1.69621  0.00871
0.36430  1.69487  0.00836
0.36589  1.69358  0.00800
0.36748  1.69232  0.00762
0.36907  1.69107  0.00723
0.37067  1.68982  0.00684
0.37226  1.68857  0.00646
0.37385  1.68732  0.00611
0.37544  1.68610  0.00577
0.37703  1.68489  0.00546
0.37863  1.68371  0.00516
0.38022  1.68255  0.00486
0.38181  1.68142  0.00457
0.38340  1.68031  0.00427
0.38499  1.67920  0.00396
0.38659  1.67808  0.00364
0.38818  1.67696  0.00333
0.38977  1.67582  0.00304
0.39136  1.67466  0.00276
0.39296  1.67348  0.00252
0.39455  1.67230  0.00233
0.39614  1.67113  0.00220
0.39773  1.67000  0.00213
0.39932  1.66891  0.00210
0.40092  1.66787  0.00210
0.40251  1.66688  0.00211
0.40410  1.66594  0.00211
0.40569  1.66503  0.00212
0.40729  1.66415  0.00213
0.40888  1.66330  0.00213
0.41047  1.66247  0.00214
0.41206  1.66167  0.00213
0.41365  1.66089  0.00213
0.41525  1.66013  0.00212
0.41684  1.65938  0.00210
0.41843  1.65865  0.00208
0.42002  1.65794  0.00205
0.42162  1.65724  0.00202
0.42321  1.65654  0.00198
0.42480  1.65586  0.00194
0.42639  1.65517  0.00189
0.42799  1.65449  0.00184
0.42958  1.65380  0.00180
0.43117  1.65313  0.00177
0.43276  1.65246  0.00175
0.43435  1.65181  0.00173
0.43595  1.65116  0.00173
0.43754  1.65053  0.00173
0.43913  1.64991  0.00173
0.44072  1.64931  0.00174
0.44232  1.64873  0.00175
0.44391  1.64816  0.00175
0.44550  1.64760  0.00175
0.44709  1.64704  0.00174
0.44869  1.64649  0.00173
0.45028  1.64593  0.00172
0.45187  1.64538  0.00172
0.45346  1.64483  0.00173
0.45505  1.64429  0.00176
0.45665  1.64377  0.00179
0.45824  1.64327  0.00183
0.45983  1.64278  0.00187
0.46142  1.64231  0.00190
0.46301  1.64185  0.00193
0.46461  1.64140  0.00195
0.46620  1.64095  0.00197
0.46779  1.64051  0.00198
0.46938  1.64007  0.00200
0.47098  1.63963  0.00201
0.47257  1.63920  0.00204
0.47416  1.63877  0.00207
0.47575  1.63835  0.00210
0.47734  1.63793  0.00215
0.47893  1.63753  0.00220
0.48053  1.63715  0.00226
0.48212  1.63679  0.00233
0.48371  1.63646  0.00239
0.48530  1.63615  0.00245
0.48689  1.63587  0.00248
0.48849  1.63560  0.00249
0.49008  1.63534  0.00247
0.49167  1.63507  0.00242
0.49326  1.63479  0.00235
0.49485  1.63448  0.00227
0.49645  1.63416  0.00219
0.49804  1.63382  0.00212
0.49963  1.63347  0.00206
0.50122  1.63312  0.00201
0.50281  1.63277  0.00198
0.50440  1.63243  0.00195
0.50599  1.63210  0.00193
0.50759  1.63178  0.00190
0.50918  1.63146  0.00187
0.51077  1.63115  0.00184
0.51236  1.63083  0.00179
0.51395  1.63050  0.00175
0.51554  1.63017  0.00171
0.51713  1.62982  0.00168
0.51873  1.62948  0.00167
0.52032  1.62913  0.00167
0.52191  1.62880  0.00168
0.52350  1.62848  0.00171
0.52509  1.62817  0.00175
0.52668  1.62789  0.00179
0.52827  1.62762  0.00182
0.52986  1.62736  0.00185
0.53146  1.62712  0.00186
0.53305  1.62688  0.00187
0.53464  1.62664  0.00186
0.53623  1.62640  0.00184
0.53782  1.62615  0.00182
0.53941  1.62590  0.00179
0.54100  1.62564  0.00177
0.54259  1.62538  0.00175
0.54418  1.62511  0.00174
0.54577  1.62485  0.00173
0.54736  1.62458  0.00173
0.54895  1.62433  0.00174
0.55054  1.62407  0.00175
0.55213  1.62382  0.00176
0.55373  1.62357  0.00178
0.55532  1.62333  0.00180
0.55691  1.62310  0.00182
0.55850  1.62288  0.00185
0.56009  1.62267  0.00187
0.56168  1.62246  0.00190
0.56327  1.62227  0.00192
0.56486  1.62208  0.00194
0.56645  1.62189  0.00195
0.56804  1.62172  0.00196
0.56963  1.62154  0.00196
0.57122  1.62137  0.00195
0.57281  1.62120  0.00194
0.57440  1.62103  0.00192
0.57599  1.62086  0.00190
0.57758  1.62069  0.00188
0.57917  1.62051  0.00185
0.58076  1.62034  0.00181
0.58235  1.62016  0.00178
0.58393  1.61998  0.00174
0.58552  1.61980  0.00170
0.58711  1.61961  0.00166
0.58870  1.61942  0.00162
0.59029  1.61923  0.00158
0.59188  1.61904  0.00154
0.59347  1.61884  0.00151
0.59506  1.61864  0.00148
0.59665  1.61844  0.00145
0.59824  1.61825  0.00142
0.59983  1.61805  0.00140
0.60142  1.61786  0.00138
0.60300  1.61766  0.00136
0.60459  1.61747  0.00134
0.60618  1.61728  0.00132
0.60777  1.61709  0.00131
0.60936  1.61691  0.00129
0.61095  1.61672  0.00128
0.61254  1.61654  0.00126
0.61412  1.61635  0.00124
0.61571  1.61617  0.00123
0.61730  1.61598  0.00122
0.61889  1.61580  0.00120
0.62048  1.61561  0.00119
0.62207  1.61543  0.00118
0.62365  1.61525  0.00117
0.62524  1.61507  0.00116
0.62683  1.61488  0.00115
0.62842  1.61470  0.00115
0.63000  1.61452  0.00115
0.63159  1.61434  0.00114
0.63318  1.61416  0.00114
0.63477  1.61398  0.00115
0.63635  1.61380  0.00115
0.63794  1.61363  0.00116
0.63953  1.61345  0.00117
0.64112  1.61328  0.00119
0.64270  1.61311  0.00120
0.64429  1.61295  0.00122
0.64588  1.61278  0.00124
0.64746  1.61263  0.00126
0.64905  1.61247  0.00128
0.65064  1.61232  0.00130
0.65222  1.61218  0.00132
0.65381  1.61203  0.00134
0.65540  1.61189  0.00135
0.65698  1.61176  0.00136
0.65857  1.61162  0.00137
0.66016  1.61148  0.00138
0.66174  1.61135  0.00138
0.66333  1.61121  0.00139
0.66492  1.61107  0.00139
0.66650  1.61092  0.00139
0.66809  1.61078  0.00139
0.66967  1.61063  0.00140
0.67126  1.61048  0.00140
0.67284  1.61034  0.00141
0.67443  1.61018  0.00142
0.67602  1.61003  0.00144
0.67760  1.60988  0.00146
0.67919  1.60974  0.00148
0.68077  1.60959  0.00151
0.68236  1.60945  0.00154
0.68394  1.60931  0.00157
0.68553  1.60917  0.00160
0.68711  1.60904  0.00164
0.68870  1.60891  0.00168
0.69028  1.60879  0.00171
0.69186  1.60867  0.00175
0.69345  1.60855  0.00179
0.69503  1.60843  0.00183
0.69662  1.60832  0.00186
0.69820  1.60821  0.00190
0.69979  1.60810  0.00194
0.70137  1.60800  0.00197
0.70295  1.60789  0.00201
0.70454  1.60779  0.00204
0.70612  1.60769  0.00207
0.70771  1.60759  0.00211
0.70929  1.60750  0.00214
0.71087  1.60740  0.00217
0.71246  1.60731  0.00220
0.71404  1.60722  0.00223
0.71562  1.60713  0.00226
0.71721  1.60704  0.00229
0.71879  1.60695  0.00232
0.72037  1.60687  0.00235
0.72195  1.60678  0.00237
0.72354  1.60670  0.00240
0.72512  1.60662  0.00243
0.72670  1.60654  0.00246
0.72828  1.60646  0.00248
0.72987  1.60638  0.00251
0.73145  1.60631  0.00253
0.73303  1.60623  0.00256
0.73461  1.60616  0.00258
0.73619  1.60609  0.00261
0.73778  1.60602  0.00263
0.73936  1.60595  0.00265
0.74094  1.60589  0.00268
0.74252  1.60582  0.00270
0.74410  1.60576  0.00272
0.74568  1.60570  0.00274
0.74726  1.60564  0.00276
0.74884  1.60558  0.00277
0.75043  1.60553  0.00279
0.75201  1.60547  0.00280
0.75359  1.60542  0.00281
0.75517  1.60537  0.00282
0.75675  1.60532  0.00283
0.75833  1.60527  0.00283
0.75991  1.60522  0.00284
0.76149  1.60517  0.00284
0.76307  1.60512  0.00284
0.76465  1.60507  0.00283
0.76623  1.60502  0.00283
0.76781  1.60497  0.00282
0.76939  1.60492  0.00281
0.77097  1.60487  0.00280
0.77255  1.60482  0.00279
0.77412  1.60477  0.00277
0.77570  1.60472  0.00276
0.77728  1.60466  0.00274
0.77886  1.60461  0.00272
0.78044  1.60455  0.00270
0.78202  1.60449  0.00268
0.78360  1.60444  0.00266
0.78518  1.60438  0.00264
0.78675  1.60431  0.00262
0.78833  1.60425  0.00259
0.78991  1.60419  0.00257
0.79149  1.60412  0.00255
0.79306  1.60406  0.00252
0.79464  1.60399  0.00250
0.79622  1.60392  0.00248
0.79780  1.60385  0.00246
0.79937  1.60377  0.00243
0.80095  1.60370  0.00241
0.80253  1.60363  0.00239
0.80411  1.60355  0.00237
0.80568  1.60347  0.00235
0.80726  1.60339  0.00233
0.80883  1.60332  0.00232
0.81041  1.60324  0.00230
0.81199  1.60316  0.00229
0.81356  1.60308  0.00228
0.81514  1.60300  0.00226
0.81671  1.60292  0.00225
0.81829  1.60285  0.00224
0.81987  1.60277  0.00223
0.82144  1.60269  0.00222
0.82302  1.60261  0.00222
0.82459  1.60254  0.00221
0.82617  1.60246  0.00220
0.82774  1.60238  0.00220
0.82932  1.60231  0.00219
0.83089  1.60223  0.00219
0.83246  1.60215  0.00218
0.83404  1.60208  0.00218
0.83561  1.60200  0.00217
0.83719  1.60193  0.00217
0.83876  1.60186  0.00216
0.84033  1.60178  0.00216
0.84191  1.60170  0.00216
0.84348  1.60163  0.00215
0.84505  1.60155  0.00215
0.84663  1.60148  0.00215
0.84820  1.60140  0.00215
0.84977  1.60133  0.00215
0.85135  1.60125  0.00215
0.85292  1.60117  0.00215
0.85449  1.60110  0.00215
0.85606  1.60102  0.00216
0.85764  1.60095  0.00216
0.85921  1.60087  0.00217
0.86078  1.60080  0.00217
0.86235  1.60072  0.00218
0.86392  1.60065  0.00219
0.86549  1.60057  0.00220
0.86707  1.60050  0.00221
0.86864  1.60043  0.00222
0.87021  1.60036  0.00224
0.87178  1.60029  0.00225
0.87335  1.60022  0.00227
0.87492  1.60015  0.00228
0.87649  1.60009  0.00230
0.87806  1.60002  0.00231
0.87963  1.59996  0.00233
0.88120  1.59990  0.00234
0.88277  1.59984  0.00236
0.88434  1.59978  0.00238
0.88591  1.59972  0.00240
0.88748  1.59966  0.00241
0.88905  1.59961  0.00243
0.89062  1.59955  0.00244
0.89218  1.59950  0.00246
0.89375  1.59945  0.00247
0.89532  1.59940  0.00249
0.89689  1.59935  0.00250
0.89846  1.59929  0.00251
0.90003  1.59925  0.00253
0.90159  1.59919  0.00254
0.90316  1.59915  0.00255
0.90473  1.59910  0.00256
0.90630  1.59905  0.00257
0.90786  1.59900  0.00258
0.90943  1.59895  0.00259
0.91100  1.59890  0.00260
0.91256  1.59885  0.00261
0.91413  1.59880  0.00262
0.91570  1.59876  0.00263
0.91726  1.59871  0.00264
0.91883  1.59866  0.00265
0.92039  1.59861  0.00266
0.92196  1.59857  0.00267
0.92353  1.59852  0.00269
0.92509  1.59847  0.00270
0.92666  1.59842  0.00271
0.92822  1.59838  0.00272
0.92979  1.59833  0.00274
0.93135  1.59829  0.00275
0.93292  1.59825  0.00276
0.93448  1.59821  0.00278
0.93604  1.59817  0.00279
0.93761  1.59813  0.00280
0.93917  1.59809  0.00282
0.94074  1.59805  0.00283
0.94230  1.59802  0.00284
0.94386  1.59798  0.00285
0.94542  1.59795  0.00286
0.94699  1.59792  0.00287
0.94855  1.59789  0.00288
0.95011  1.59786  0.00289
0.95168  1.59783  0.00290
0.95324  1.59780  0.00290
0.95480  1.59778  0.00290
0.95636  1.59775  0.00291
0.95792  1.59773  0.00290
0.95948  1.59770  0.00290
0.96105  1.59768  0.00290
0.96261  1.59765  0.00289
0.96417  1.59763  0.00288
0.96573  1.59760  0.00287
0.96729  1.59757  0.00286
0.96885  1.59754  0.00284
0.97041  1.59751  0.00283
0.97197  1.59748  0.00281
0.97353  1.59745  0.00279
0.97509  1.59741  0.00277
0.97665  1.59737  0.00275
0.97821  1.59733  0.00272
0.97977  1.59729  0.00270
0.98133  1.59724  0.00268
0.98288  1.59719  0.00266
0.98444  1.59714  0.00264
0.98600  1.59709  0.00262
0.98756  1.59703  0.00260
0.98912  1.59698  0.00258
0.99068  1.59692  0.00256
0.99223  1.59686  0.00254
0.99379  1.59679  0.00253
0.99535  1.59673  0.00252
0.99690  1.59666  0.00251
0.99846  1.59660  0.00250
1.01183  1.59601  0.00255
1.01522  1.59588  0.00259
1.01861  1.59575  0.00264
1.02201  1.59564  0.00270
1.02541  1.59553  0.00276
1.02880  1.59544  0.00282
1.03220  1.59536  0.00288
1.03559  1.59529  0.00293
1.03899  1.59522  0.00299
1.04239  1.59517  0.00303
1.04579  1.59512  0.00307
1.04919  1.59508  0.00310
1.05259  1.59504  0.00312
1.05599  1.59499  0.00313
1.05939  1.59495  0.00313
1.06279  1.59490  0.00313
1.06619  1.59485  0.00313
1.06959  1.59479  0.00312
1.07299  1.59474  0.00310
1.07639  1.59467  0.00309
1.07980  1.59460  0.00307
1.08320  1.59453  0.00306
1.08660  1.59445  0.00304
1.09001  1.59437  0.00303
1.09341  1.59429  0.00302
1.09682  1.59420  0.00301
1.10022  1.59412  0.00300
1.10363  1.59403  0.00300
1.10703  1.59394  0.00300
1.11044  1.59386  0.00300
1.11385  1.59377  0.00301
1.11726  1.59369  0.00301
1.12066  1.59360  0.00302
1.12407  1.59352  0.00303
1.12748  1.59344  0.00303
1.13089  1.59336  0.00304
1.13430  1.59328  0.00305
1.13771  1.59320  0.00306
1.14112  1.59312  0.00307
1.14453  1.59304  0.00308
1.14795  1.59297  0.00309
1.15136  1.59289  0.00309
1.15477  1.59281  0.00310
1.15818  1.59274  0.00311
1.16160  1.59266  0.00312
1.16501  1.59258  0.00313
1.16843  1.59251  0.00313
1.17184  1.59243  0.00314
1.17526  1.59235  0.00315
1.17867  1.59228  0.00316
1.18209  1.59220  0.00316
1.18551  1.59212  0.00317
1.18892  1.59205  0.00318
1.19234  1.59197  0.00319
1.19576  1.59189  0.00320
1.19918  1.59181  0.00321
1.20260  1.59174  0.00323
1.20602  1.59166  0.00324
1.20944  1.59158  0.00325
1.21286  1.59150  0.00326
1.21628  1.59143  0.00328
1.21970  1.59135  0.00329
1.22312  1.59127  0.00330
1.22654  1.59120  0.00332
1.22996  1.59112  0.00333
1.23339  1.59105  0.00335
1.23681  1.59097  0.00336
1.24024  1.59090  0.00338
1.24366  1.59082  0.00340
1.24708  1.59075  0.00341
1.25051  1.59067  0.00343
1.25394  1.59060  0.00345
1.25736  1.59052  0.00347
1.26079  1.59045  0.00348
1.26422  1.59038  0.00350
1.26764  1.59030  0.00352
1.27107  1.59023  0.00354
1.27450  1.59016  0.00356
1.27793  1.59008  0.00358
1.28136  1.59001  0.00360
1.28479  1.58994  0.00362
1.28822  1.58987  0.00364
1.29165  1.58979  0.00366
1.29508  1.58972  0.00368
1.29851  1.58965  0.00371
1.30194  1.58957  0.00373
1.30538  1.58950  0.00375
1.30881  1.58943  0.00378
1.31224  1.58936  0.00380
1.31568  1.58929  0.00382
1.31911  1.58921  0.00385
1.32255  1.58914  0.00388
1.32598  1.58907  0.00390
1.32942  1.58900  0.00393
1.33285  1.58893  0.00396
1.33629  1.58885  0.00398
1.33973  1.58878  0.00401
1.34316  1.58871  0.00404
1.34660  1.58864  0.00407
1.35004  1.58857  0.00410
1.35348  1.58850  0.00413
1.35692  1.58843  0.00417
1.36036  1.58836  0.00420
1.36380  1.58829  0.00423
1.36724  1.58822  0.00426
1.37068  1.58815  0.00430
1.37412  1.58808  0.00434
1.37756  1.58801  0.00437
1.38101  1.58794  0.00441
1.38445  1.58788  0.00445
1.38789  1.58781  0.00449
1.39134  1.58774  0.00453
1.39478  1.58768  0.00457
1.39823  1.58761  0.00461
1.40167  1.58755  0.00466
1.40512  1.58748  0.00470
1.40856  1.58742  0.00475
1.41201  1.58736  0.00479
1.41546  1.58730  0.00484
1.41890  1.58724  0.00489
1.42235  1.58718  0.00494
1.42580  1.58712  0.00499
1.42925  1.58706  0.00504
1.43270  1.58701  0.00509
1.43615  1.58695  0.00513
1.43960  1.58690  0.00519
1.44305  1.58685  0.00524
1.44650  1.58680  0.00529
1.44995  1.58675  0.00534
1.45340  1.58670  0.00539
1.45685  1.58665  0.00544
1.46031  1.58660  0.00549
1.46376  1.58656  0.00555
1.46721  1.58651  0.00560
1.47067  1.58647  0.00565
1.47412  1.58643  0.00570
1.47758  1.58638  0.00575
1.48103  1.58634  0.00580
1.48449  1.58630  0.00585
1.48795  1.58626  0.00590
1.49140  1.58622  0.00595
1.49486  1.58618  0.00600
1.49832  1.58614  0.00605
1.50178  1.58610  0.00610
1.50524  1.58606  0.00615
1.50869  1.58602  0.00620
1.51215  1.58598  0.00626
1.51561  1.58594  0.00631
1.51907  1.58590  0.00636
1.52254  1.58586  0.00641
1.52600  1.58582  0.00647
1.52946  1.58578  0.00652
1.53292  1.58574  0.00658
1.53638  1.58570  0.00663
1.53985  1.58567  0.00669
1.54331  1.58563  0.00675
1.54678  1.58559  0.00681
1.55024  1.58555  0.00688
1.55370  1.58552  0.00694
1.55717  1.58548  0.00701
1.56064  1.58545  0.00708
1.56410  1.58542  0.00715
1.56757  1.58538  0.00722
1.57104  1.58536  0.00729
1.57450  1.58533  0.00737
1.57797  1.58530  0.00745
1.58144  1.58528  0.00753
1.58491  1.58526  0.00761
1.58838  1.58524  0.00769
1.59185  1.58522  0.00778
1.59532  1.58521  0.00787
1.59879  1.58521  0.00796
1.60226  1.58520  0.00805
1.60573  1.58521  0.00814
1.60921  1.58521  0.00823
1.61268  1.58522  0.00832
1.61615  1.58523  0.00840
1.61963  1.58525  0.00850
1.62310  1.58527  0.00858
1.62657  1.58530  0.00867
1.63005  1.58533  0.00876
1.63352  1.58537  0.00884
1.63700  1.58540  0.00892
1.64048  1.58545  0.00901
1.64395  1.58549  0.00908
1.64743  1.58554  0.00916
1.65091  1.58560  0.00923
1.65439  1.58565  0.00931
1.65786  1.58571  0.00937
1.66134  1.58578  0.00944
1.66482  1.58585  0.00950
1.66830  1.58591  0.00956
1.67178  1.58599  0.00961
1.67526  1.58606  0.00967
1.67875  1.58614  0.00971
1.68223  1.58622  0.00976
1.68571  1.58630  0.00979
1.68919  1.58639  0.00983
