; Refractive index spectrum of UNEXPOSED Dow/Shipley S1800 positive photoresist
; Measured with VASE, Q. Wang, NIST, April 2015
;
; lambda/um    n        k
0.22910  1.99116  0.38843
0.23069  1.99525  0.34380
0.23228  1.98673  0.32176
0.23387  1.99629  0.30372
0.23545  2.00018  0.27174
0.23704  1.99567  0.24559
0.23863  1.99393  0.21925
0.24022  1.98670  0.18741
0.24181  1.96747  0.15641
0.24340  1.93959  0.13879
0.24499  1.91950  0.13282
0.24658  1.90550  0.12455
0.24817  1.88971  0.11597
0.24975  1.87381  0.11019
0.25134  1.85884  0.10628
0.25293  1.84464  0.10398
0.25452  1.83139  0.10326
0.25611  1.81932  0.10391
0.25770  1.80859  0.10562
0.25929  1.79917  0.10806
0.26088  1.79093  0.11106
0.26247  1.78387  0.11452
0.26406  1.77795  0.11824
0.26565  1.77304  0.12214
0.26724  1.76909  0.12623
0.26883  1.76616  0.13046
0.27042  1.76427  0.13473
0.27201  1.76342  0.13897
0.27360  1.76366  0.14311
0.27519  1.76509  0.14703
0.27678  1.76789  0.15055
0.27837  1.77211  0.15313
0.27996  1.77736  0.15429
0.28155  1.78316  0.15392
0.28314  1.78906  0.15208
0.28473  1.79486  0.14915
0.28632  1.80101  0.14532
0.28791  1.80778  0.13966
0.28950  1.81417  0.13125
0.29109  1.81877  0.12033
0.29268  1.82059  0.10760
0.29428  1.81882  0.09443
0.29587  1.81382  0.08253
0.29746  1.80679  0.07278
0.29905  1.79869  0.06531
0.30064  1.79046  0.06003
0.30223  1.78267  0.05641
0.30382  1.77551  0.05391
0.30541  1.76897  0.05222
0.30700  1.76303  0.05109
0.30859  1.75763  0.05036
0.31018  1.75269  0.04991
0.31177  1.74813  0.04965
0.31337  1.74388  0.04958
0.31496  1.73992  0.04969
0.31655  1.73625  0.04995
0.31814  1.73287  0.05033
0.31973  1.72975  0.05080
0.32132  1.72684  0.05135
0.32291  1.72415  0.05201
0.32450  1.72171  0.05275
0.32610  1.71952  0.05355
0.32769  1.71756  0.05438
0.32928  1.71581  0.05523
0.33087  1.71430  0.05613
0.33246  1.71308  0.05705
0.33405  1.71220  0.05790
0.33564  1.71160  0.05854
0.33724  1.71114  0.05893
0.33883  1.71071  0.05913
0.34042  1.71029  0.05923
0.34201  1.70994  0.05928
0.34360  1.70970  0.05923
0.34519  1.70954  0.05906
0.34679  1.70942  0.05873
0.34838  1.70931  0.05828
0.34997  1.70920  0.05771
0.35156  1.70909  0.05704
0.35315  1.70898  0.05625
0.35475  1.70884  0.05534
0.35634  1.70866  0.05430
0.35793  1.70838  0.05316
0.35952  1.70800  0.05192
0.36111  1.70751  0.05063
0.36271  1.70691  0.04929
0.36430  1.70618  0.04792
0.36589  1.70532  0.04654
0.36748  1.70432  0.04517
0.36907  1.70317  0.04384
0.37067  1.70186  0.04258
0.37226  1.70042  0.04142
0.37385  1.69885  0.04041
0.37544  1.69719  0.03959
0.37703  1.69549  0.03899
0.37863  1.69383  0.03861
0.38022  1.69228  0.03839
0.38181  1.69084  0.03828
0.38340  1.68951  0.03823
0.38499  1.68823  0.03821
0.38659  1.68701  0.03824
0.38818  1.68582  0.03833
0.38977  1.68466  0.03849
0.39136  1.68352  0.03873
0.39296  1.68243  0.03910
0.39455  1.68142  0.03961
0.39614  1.68055  0.04028
0.39773  1.67991  0.04106
0.39932  1.67951  0.04189
0.40092  1.67935  0.04269
0.40251  1.67945  0.04342
0.40410  1.67976  0.04401
0.40569  1.68025  0.04440
0.40729  1.68087  0.04455
0.40888  1.68150  0.04442
0.41047  1.68203  0.04405
0.41206  1.68240  0.04354
0.41365  1.68261  0.04299
0.41525  1.68269  0.04247
0.41684  1.68270  0.04203
0.41843  1.68270  0.04167
0.42002  1.68273  0.04139
0.42162  1.68283  0.04119
0.42321  1.68306  0.04106
0.42480  1.68349  0.04092
0.42639  1.68412  0.04068
0.42799  1.68492  0.04028
0.42958  1.68584  0.03962
0.43117  1.68679  0.03869
0.43276  1.68769  0.03748
0.43435  1.68848  0.03603
0.43595  1.68912  0.03435
0.43754  1.68955  0.03246
0.43913  1.68970  0.03043
0.44072  1.68956  0.02832
0.44232  1.68910  0.02622
0.44391  1.68837  0.02422
0.44550  1.68740  0.02237
0.44709  1.68628  0.02071
0.44869  1.68506  0.01922
0.45028  1.68377  0.01790
0.45187  1.68244  0.01674
0.45346  1.68109  0.01572
0.45505  1.67974  0.01485
0.45665  1.67842  0.01409
0.45824  1.67712  0.01344
0.45983  1.67587  0.01289
0.46142  1.67466  0.01242
0.46301  1.67350  0.01201
0.46461  1.67240  0.01167
0.46620  1.67135  0.01136
0.46779  1.67036  0.01108
0.46938  1.66941  0.01083
0.47098  1.66850  0.01058
0.47257  1.66762  0.01033
0.47416  1.66676  0.01010
0.47575  1.66591  0.00988
0.47734  1.66508  0.00969
0.47893  1.66426  0.00952
0.48053  1.66348  0.00938
0.48212  1.66274  0.00926
0.48371  1.66205  0.00914
0.48530  1.66140  0.00902
0.48689  1.66079  0.00888
0.48849  1.66020  0.00870
0.49008  1.65962  0.00848
0.49167  1.65902  0.00823
0.49326  1.65839  0.00796
0.49485  1.65773  0.00769
0.49645  1.65704  0.00744
0.49804  1.65631  0.00721
0.49963  1.65557  0.00702
0.50122  1.65483  0.00687
0.50281  1.65410  0.00675
0.50440  1.65339  0.00667
0.50599  1.65270  0.00660
0.50759  1.65202  0.00655
0.50918  1.65136  0.00651
0.51077  1.65071  0.00648
0.51236  1.65007  0.00645
0.51395  1.64943  0.00644
0.51554  1.64880  0.00645
0.51713  1.64817  0.00648
0.51873  1.64754  0.00653
0.52032  1.64694  0.00661
0.52191  1.64636  0.00672
0.52350  1.64582  0.00685
0.52509  1.64532  0.00699
0.52668  1.64485  0.00713
0.52827  1.64442  0.00726
0.52986  1.64402  0.00737
0.53146  1.64363  0.00747
0.53305  1.64326  0.00754
0.53464  1.64288  0.00758
0.53623  1.64250  0.00762
0.53782  1.64211  0.00766
0.53941  1.64170  0.00769
0.54100  1.64129  0.00774
0.54259  1.64087  0.00780
0.54418  1.64045  0.00788
0.54577  1.64004  0.00798
0.54736  1.63965  0.00810
0.54895  1.63926  0.00824
0.55054  1.63890  0.00838
0.55213  1.63856  0.00854
0.55373  1.63823  0.00871
0.55532  1.63793  0.00889
0.55691  1.63766  0.00907
0.55850  1.63741  0.00925
0.56009  1.63718  0.00944
0.56168  1.63698  0.00961
0.56327  1.63681  0.00978
0.56486  1.63666  0.00994
0.56645  1.63653  0.01009
0.56804  1.63642  0.01022
0.56963  1.63633  0.01033
0.57122  1.63626  0.01042
0.57281  1.63619  0.01049
0.57440  1.63613  0.01054
0.57599  1.63608  0.01058
0.57758  1.63604  0.01059
0.57917  1.63600  0.01058
0.58076  1.63596  0.01055
0.58235  1.63591  0.01050
0.58393  1.63586  0.01043
0.58552  1.63580  0.01034
0.58711  1.63572  0.01024
0.58870  1.63563  0.01013
0.59029  1.63553  0.01001
0.59188  1.63542  0.00988
0.59347  1.63529  0.00975
0.59506  1.63515  0.00962
0.59665  1.63501  0.00949
0.59824  1.63485  0.00937
0.59983  1.63469  0.00925
0.60142  1.63452  0.00913
0.60300  1.63434  0.00901
0.60459  1.63417  0.00890
0.60618  1.63398  0.00879
0.60777  1.63380  0.00868
0.60936  1.63361  0.00857
0.61095  1.63342  0.00847
0.61254  1.63322  0.00837
0.61412  1.63302  0.00828
0.61571  1.63283  0.00819
0.61730  1.63263  0.00810
0.61889  1.63243  0.00801
0.62048  1.63223  0.00793
0.62207  1.63203  0.00785
0.62365  1.63182  0.00778
0.62524  1.63162  0.00771
0.62683  1.63142  0.00764
0.62842  1.63122  0.00757
0.63000  1.63102  0.00751
0.63159  1.63082  0.00745
0.63318  1.63062  0.00739
0.63477  1.63042  0.00734
0.63635  1.63022  0.00729
0.63794  1.63003  0.00725
0.63953  1.62983  0.00720
0.64112  1.62964  0.00716
0.64270  1.62946  0.00713
0.64429  1.62927  0.00709
0.64588  1.62909  0.00706
0.64746  1.62891  0.00703
0.64905  1.62874  0.00700
0.65064  1.62857  0.00697
0.65222  1.62840  0.00694
0.65381  1.62824  0.00692
0.65540  1.62808  0.00688
0.65698  1.62792  0.00685
0.65857  1.62777  0.00682
0.66016  1.62761  0.00678
0.66174  1.62746  0.00674
0.66333  1.62731  0.00670
0.66492  1.62715  0.00666
0.66650  1.62699  0.00662
0.66809  1.62684  0.00657
0.66967  1.62668  0.00653
0.67126  1.62652  0.00649
0.67284  1.62636  0.00645
0.67443  1.62619  0.00642
0.67602  1.62603  0.00638
0.67760  1.62587  0.00635
0.67919  1.62571  0.00633
0.68077  1.62555  0.00630
0.68236  1.62539  0.00628
0.68394  1.62524  0.00626
0.68553  1.62509  0.00625
0.68711  1.62495  0.00623
0.68870  1.62480  0.00622
0.69028  1.62466  0.00620
0.69186  1.62452  0.00619
0.69345  1.62439  0.00617
0.69503  1.62426  0.00615
0.69662  1.62413  0.00614
0.69820  1.62401  0.00612
0.69979  1.62389  0.00610
0.70137  1.62376  0.00607
0.70295  1.62364  0.00605
0.70454  1.62352  0.00602
0.70612  1.62340  0.00600
0.70771  1.62329  0.00597
0.70929  1.62317  0.00594
0.71087  1.62305  0.00591
0.71246  1.62294  0.00587
0.71404  1.62282  0.00584
0.71562  1.62271  0.00580
0.71721  1.62259  0.00577
0.71879  1.62247  0.00573
0.72037  1.62236  0.00569
0.72195  1.62224  0.00565
0.72354  1.62212  0.00561
0.72512  1.62200  0.00556
0.72670  1.62188  0.00552
0.72828  1.62176  0.00548
0.72987  1.62164  0.00543
0.73145  1.62152  0.00539
0.73303  1.62139  0.00535
0.73461  1.62127  0.00530
0.73619  1.62114  0.00526
0.73778  1.62101  0.00522
0.73936  1.62088  0.00517
0.74094  1.62076  0.00513
0.74252  1.62063  0.00509
0.74410  1.62050  0.00505
0.74568  1.62036  0.00501
0.74726  1.62023  0.00497
0.74884  1.62010  0.00493
0.75043  1.61996  0.00489
0.75201  1.61983  0.00486
0.75359  1.61969  0.00482
0.75517  1.61956  0.00479
0.75675  1.61942  0.00475
0.75833  1.61928  0.00472
0.75991  1.61915  0.00468
0.76149  1.61901  0.00465
0.76307  1.61887  0.00462
0.76465  1.61873  0.00459
0.76623  1.61858  0.00457
0.76781  1.61844  0.00454
0.76939  1.61830  0.00452
0.77097  1.61816  0.00449
0.77255  1.61801  0.00447
0.77412  1.61787  0.00445
0.77570  1.61772  0.00444
0.77728  1.61757  0.00442
0.77886  1.61743  0.00441
0.78044  1.61728  0.00440
0.78202  1.61713  0.00439
0.78360  1.61699  0.00439
0.78518  1.61684  0.00439
0.78675  1.61670  0.00439
0.78833  1.61655  0.00439
0.78991  1.61641  0.00440
0.79149  1.61627  0.00441
0.79306  1.61613  0.00442
0.79464  1.61599  0.00443
0.79622  1.61585  0.00445
0.79780  1.61572  0.00446
0.79937  1.61558  0.00448
0.80095  1.61545  0.00450
0.80253  1.61532  0.00452
0.80411  1.61519  0.00455
0.80568  1.61507  0.00457
0.80726  1.61495  0.00460
0.80883  1.61482  0.00462
0.81041  1.61470  0.00465
0.81199  1.61458  0.00468
0.81356  1.61447  0.00470
0.81514  1.61435  0.00473
0.81671  1.61424  0.00476
0.81829  1.61413  0.00479
0.81987  1.61402  0.00482
0.82144  1.61391  0.00485
0.82302  1.61380  0.00488
0.82459  1.61370  0.00491
0.82617  1.61359  0.00494
0.82774  1.61349  0.00498
0.82932  1.61338  0.00501
0.83089  1.61328  0.00504
0.83246  1.61318  0.00507
0.83404  1.61309  0.00510
0.83561  1.61299  0.00513
0.83719  1.61289  0.00517
0.83876  1.61279  0.00520
0.84033  1.61270  0.00523
0.84191  1.61261  0.00526
0.84348  1.61251  0.00530
0.84505  1.61242  0.00533
0.84663  1.61233  0.00536
0.84820  1.61223  0.00539
0.84977  1.61214  0.00543
0.85135  1.61205  0.00546
0.85292  1.61196  0.00549
0.85449  1.61187  0.00553
0.85606  1.61178  0.00557
0.85764  1.61169  0.00560
0.85921  1.61160  0.00564
0.86078  1.61151  0.00568
0.86235  1.61142  0.00572
0.86392  1.61133  0.00576
0.86549  1.61125  0.00581
0.86707  1.61116  0.00585
0.86864  1.61108  0.00589
0.87021  1.61100  0.00594
0.87178  1.61091  0.00599
0.87335  1.61083  0.00604
0.87492  1.61075  0.00609
0.87649  1.61068  0.00614
0.87806  1.61060  0.00619
0.87963  1.61053  0.00624
0.88120  1.61046  0.00630
0.88277  1.61039  0.00635
0.88434  1.61032  0.00641
0.88591  1.61026  0.00646
0.88748  1.61020  0.00651
0.88905  1.61013  0.00657
0.89062  1.61007  0.00663
0.89218  1.61002  0.00668
0.89375  1.60996  0.00674
0.89532  1.60991  0.00679
0.89689  1.60986  0.00685
0.89846  1.60981  0.00690
0.90003  1.60976  0.00696
0.90159  1.60971  0.00701
0.90316  1.60967  0.00706
0.90473  1.60962  0.00712
0.90630  1.60958  0.00717
0.90786  1.60954  0.00722
0.90943  1.60950  0.00727
0.91100  1.60946  0.00732
0.91256  1.60942  0.00738
0.91413  1.60938  0.00743
0.91570  1.60934  0.00748
0.91726  1.60931  0.00753
0.91883  1.60928  0.00758
0.92039  1.60924  0.00763
0.92196  1.60921  0.00768
0.92353  1.60918  0.00773
0.92509  1.60915  0.00779
0.92666  1.60912  0.00784
0.92822  1.60910  0.00789
0.92979  1.60907  0.00794
0.93135  1.60905  0.00799
0.93292  1.60903  0.00805
0.93448  1.60901  0.00810
0.93604  1.60899  0.00815
0.93761  1.60898  0.00821
0.93917  1.60896  0.00826
0.94074  1.60896  0.00831
0.94230  1.60895  0.00836
0.94386  1.60895  0.00842
0.94542  1.60895  0.00847
0.94699  1.60895  0.00852
0.94855  1.60895  0.00856
0.95011  1.60896  0.00861
0.95168  1.60897  0.00865
0.95324  1.60898  0.00870
0.95480  1.60900  0.00874
0.95636  1.60901  0.00877
0.95792  1.60903  0.00881
0.95948  1.60906  0.00884
0.96105  1.60908  0.00887
0.96261  1.60911  0.00889
0.96417  1.60913  0.00891
0.96573  1.60916  0.00893
0.96729  1.60919  0.00894
0.96885  1.60922  0.00895
0.97041  1.60925  0.00896
0.97197  1.60928  0.00896
0.97353  1.60931  0.00896
0.97509  1.60933  0.00895
0.97665  1.60936  0.00894
0.97821  1.60938  0.00893
0.97977  1.60940  0.00891
0.98133  1.60942  0.00889
0.98288  1.60944  0.00887
0.98444  1.60945  0.00884
0.98600  1.60946  0.00881
0.98756  1.60947  0.00879
0.98912  1.60947  0.00876
0.99068  1.60947  0.00873
0.99223  1.60947  0.00870
0.99379  1.60947  0.00867
0.99535  1.60946  0.00863
0.99690  1.60945  0.00860
0.99846  1.60943  0.00857
1.01183  1.60923  0.00836
1.01522  1.60917  0.00833
1.01861  1.60910  0.00832
1.02201  1.60905  0.00831
1.02541  1.60899  0.00830
1.02880  1.60895  0.00831
1.03220  1.60891  0.00831
1.03559  1.60889  0.00831
1.03899  1.60887  0.00831
1.04239  1.60885  0.00830
1.04579  1.60885  0.00829
1.04919  1.60885  0.00828
1.05259  1.60885  0.00825
1.05599  1.60886  0.00821
1.05939  1.60886  0.00816
1.06279  1.60886  0.00810
1.06619  1.60885  0.00803
1.06959  1.60884  0.00796
1.07299  1.60882  0.00788
1.07639  1.60879  0.00779
1.07980  1.60875  0.00771
1.08320  1.60870  0.00762
1.08660  1.60864  0.00754
1.09001  1.60858  0.00745
1.09341  1.60850  0.00737
1.09682  1.60842  0.00730
1.10022  1.60834  0.00723
1.10363  1.60825  0.00716
1.10703  1.60816  0.00711
1.11044  1.60806  0.00705
1.11385  1.60797  0.00701
1.11726  1.60787  0.00697
1.12066  1.60778  0.00693
1.12407  1.60769  0.00690
1.12748  1.60760  0.00687
1.13089  1.60752  0.00685
1.13430  1.60744  0.00682
1.13771  1.60735  0.00680
1.14112  1.60728  0.00678
1.14453  1.60720  0.00676
1.14795  1.60712  0.00673
1.15136  1.60705  0.00671
1.15477  1.60698  0.00669
1.15818  1.60691  0.00667
1.16160  1.60684  0.00664
1.16501  1.60676  0.00662
1.16843  1.60669  0.00659
1.17184  1.60662  0.00656
1.17526  1.60654  0.00654
1.17867  1.60647  0.00651
1.18209  1.60639  0.00648
1.18551  1.60631  0.00645
1.18892  1.60624  0.00643
1.19234  1.60616  0.00640
1.19576  1.60608  0.00638
1.19918  1.60599  0.00635
1.20260  1.60591  0.00633
1.20602  1.60583  0.00631
1.20944  1.60574  0.00629
1.21286  1.60566  0.00627
1.21628  1.60557  0.00626
1.21970  1.60549  0.00624
1.22312  1.60540  0.00623
1.22654  1.60532  0.00622
1.22996  1.60524  0.00621
1.23339  1.60515  0.00620
1.23681  1.60507  0.00619
1.24024  1.60499  0.00618
1.24366  1.60491  0.00618
1.24708  1.60482  0.00617
1.25051  1.60474  0.00617
1.25394  1.60466  0.00617
1.25736  1.60458  0.00616
1.26079  1.60450  0.00616
1.26422  1.60442  0.00616
1.26764  1.60435  0.00616
1.27107  1.60427  0.00616
1.27450  1.60419  0.00616
1.27793  1.60411  0.00616
1.28136  1.60404  0.00616
1.28479  1.60396  0.00616
1.28822  1.60389  0.00616
1.29165  1.60381  0.00616
1.29508  1.60373  0.00616
1.29851  1.60366  0.00616
1.30194  1.60358  0.00617
1.30538  1.60351  0.00617
1.30881  1.60343  0.00617
1.31224  1.60336  0.00617
1.31568  1.60328  0.00618
1.31911  1.60321  0.00618
1.32255  1.60313  0.00619
1.32598  1.60306  0.00619
1.32942  1.60299  0.00620
1.33285  1.60291  0.00620
1.33629  1.60284  0.00621
1.33973  1.60276  0.00622
1.34316  1.60269  0.00622
1.34660  1.60261  0.00623
1.35004  1.60254  0.00624
1.35348  1.60247  0.00625
1.35692  1.60239  0.00626
1.36036  1.60232  0.00627
1.36380  1.60224  0.00628
1.36724  1.60217  0.00629
1.37068  1.60210  0.00630
1.37412  1.60202  0.00631
1.37756  1.60195  0.00632
1.38101  1.60187  0.00633
1.38445  1.60180  0.00635
1.38789  1.60173  0.00636
1.39134  1.60166  0.00637
1.39478  1.60158  0.00639
1.39823  1.60151  0.00640
1.40167  1.60143  0.00642
1.40512  1.60136  0.00644
1.40856  1.60129  0.00645
1.41201  1.60122  0.00647
1.41546  1.60114  0.00649
1.41890  1.60107  0.00651
1.42235  1.60100  0.00652
1.42580  1.60092  0.00654
1.42925  1.60085  0.00656
1.43270  1.60078  0.00658
1.43615  1.60071  0.00660
1.43960  1.60063  0.00663
1.44305  1.60056  0.00665
1.44650  1.60049  0.00667
1.44995  1.60041  0.00670
1.45340  1.60034  0.00672
1.45685  1.60027  0.00675
1.46031  1.60019  0.00677
1.46376  1.60012  0.00680
1.46721  1.60005  0.00683
1.47067  1.59998  0.00686
1.47412  1.59990  0.00689
1.47758  1.59983  0.00692
1.48103  1.59976  0.00695
1.48449  1.59969  0.00698
1.48795  1.59962  0.00702
1.49140  1.59954  0.00705
1.49486  1.59947  0.00709
1.49832  1.59940  0.00712
1.50178  1.59933  0.00716
1.50524  1.59926  0.00720
1.50869  1.59919  0.00724
