; Refractive index spectrum of the Brewer Science WiDE-C 
; bottom anti-reflection coating.
; Source: Brewer Science
;
; lambda/um   n        k
0.1984  1.53350  0.62913
0.2000  1.56140  0.56477
0.2016  1.59310  0.58243
0.2033  1.63500  0.55633
0.2050  1.65940  0.55426
0.2067  1.68560  0.54549
0.2084  1.71190  0.53066
0.2102  1.73270  0.50897
0.2120  1.74110  0.47418
0.2138  1.75980  0.45724
0.2157  1.76640  0.41975
0.2175  1.76520  0.39269
0.2195  1.76050  0.36702
0.2214  1.75300  0.34722
0.2234  1.74330  0.33662
0.2254  1.73360  0.32597
0.2275  1.72490  0.31621
0.2296  1.71410  0.31025
0.2318  1.70110  0.30575
0.2340  1.70020  0.29664
0.2362  1.70090  0.28318
0.2385  1.70850  0.27493
0.2408  1.71940  0.26975
0.2431  1.72420  0.26436
0.2455  1.73270  0.26204
0.2480  1.73970  0.26312
0.2505  1.74410  0.26333
0.2531  1.74450  0.26622
0.2557  1.74850  0.26677
0.2583  1.75000  0.26689
0.2611  1.75190  0.26346
0.2638  1.75610  0.26041
0.2667  1.75810  0.25483
0.2696  1.75830  0.24656
0.2725  1.75650  0.23838
0.2756  1.75440  0.22802
0.2787  1.74900  0.21929
0.2818  1.74080  0.21200
0.2851  1.73230  0.20628
0.2884  1.72450  0.20158
0.2918  1.71620  0.19779
0.2952  1.70840  0.19460
0.2988  1.70080  0.19268
0.3024  1.69360  0.19239
0.3062  1.68640  0.19344
0.3100  1.67830  0.19710
0.3139  1.67110  0.20296
0.3175  1.66320  0.21192
0.3221  1.65880  0.21973
0.3263  1.65540  0.22947
0.3307  1.65450  0.24104
0.3351  1.65450  0.25414
0.3397  1.65760  0.26829
0.3444  1.66390  0.28264
0.3493  1.67400  0.29639
0.3543  1.68780  0.31025
0.3594  1.70480  0.32206
0.3647  1.72590  0.33195
0.3701  1.75290  0.33829
0.3758  1.78230  0.34012
0.3815  1.81550  0.33479
0.3875  1.84880  0.32055
0.3936  1.88020  0.29743
0.4000  1.90690  0.26760
0.4066  1.92850  0.23133
0.4133  1.94240  0.18752
0.4203  1.94280  0.13917
0.4276  1.92820  0.09355
0.4351  1.90410  0.05786
0.4429  1.87660  0.03405
0.4509  1.85090  0.02065
0.4593  1.82960  0.01375
0.4679  1.81250  0.00947
0.4769  1.79860  0.00664
0.4863  1.78650  0.00473
0.4960  1.77580  0.00346
0.5061  1.76600  0.00251
0.5167  1.75700  0.00214
0.5277  1.74900  0.00178
0.5391  1.74160  0.00163
0.5511  1.73490  0.00173
0.5838  1.72890  0.00172
0.5787  1.72340  0.00159
0.5905  1.71850  0.00141
0.6049  1.71390  0.00133
0.6200  1.71010  0.00181
0.6359  1.70870  0.00159
0.6528  1.70350  0.00130
0.6703  1.70040  0.00101
0.6889  1.69710  0.00089
0.7086  1.69440  0.00084
0.7294  1.69180  0.00000
0.7515  1.68920  0.00000
0.7750  1.68880  0.00000
0.8000  1.68450  0.00000
0.8289  1.68220  0.00000
0.8552  1.67910  0.00000
0.8857  1.67750  0.00000
0.9185  1.67480  0.00000
0.9839  1.67230  0.00000
0.9920  1.67000  0.00000
