; From SOPRA S.A. http://www.sopra-sa.com/indices.htm
; Filename    Symbol               Range (nm)     Description
; AGAINP3     (Al.3Ga.7)0.5In0.5P 225     1000    Aluminum Gallium Indium Phosphide (30% Al)
; lambda/um       n         k
0.22500  1.554989  2.663428
0.22750  1.595924  2.716581
0.23000  1.641986  2.772485
0.23250  1.694347  2.830968
0.23500  1.754400  2.891604
0.23750  1.823758  2.953576
0.24000  1.904196  3.015500
0.24250  1.997507  3.075221
0.24500  2.105227  3.129592
0.24750  2.228143  3.174335
0.25000  2.365611  3.204120
0.25250  2.514756  3.213113
0.25500  2.669888  3.196102
0.25750  2.822676  3.150143
0.26000  2.963475  3.076074
0.26250  3.083400  2.979134
0.26500  3.176886  2.867736
0.26750  3.242537  2.751351
0.27000  3.282704  2.638278
0.27250  3.302031  2.534362
0.27500  3.305908  2.442814
0.27750  3.299375  2.364696
0.28000  3.286586  2.299660
0.28250  3.270695  2.246562
0.28500  3.253951  2.203940
0.28750  3.237878  2.170274
0.29000  3.223461  2.144143
0.29250  3.211299  2.124294
0.29500  3.201728  2.109653
0.29750  3.194914  2.099326
0.30000  3.190913  2.092576
0.30250  3.189721  2.088799
0.30500  3.191304  2.087508
0.30750  3.195614  2.088308
0.31000  3.202612  2.090878
0.31250  3.212278  2.094953
0.31500  3.224622  2.100300
0.31750  3.239625  2.106842
0.32000  3.257152  2.114878
0.32250  3.277880  2.122999
0.32500  3.301621  2.131683
0.32750  3.328576  2.140687
0.33000  3.358962  2.149734
0.33250  3.393015  2.158479
0.33500  3.430979  2.166488
0.33750  3.473077  2.173218
0.34000  3.519482  2.178003
0.34250  3.570266  2.180051
0.34500  3.625351  2.178450
0.34750  3.684450  2.172201
0.35000  3.747015  2.160272
0.35250  3.812195  2.141678
0.35500  3.878840  2.115593
0.35750  3.945526  2.081452
0.36000  4.010641  2.039059
0.36250  4.072514  1.988650
0.36500  4.129564  1.930903
0.36750  4.180437  1.866895
0.37000  4.224131  1.797993
0.37250  4.260049  1.725722
0.37500  4.288007  1.651625
0.37750  4.308188  1.577142
0.38000  4.321066  1.503525
0.38250  4.327315  1.431791
0.38500  4.327721  1.362700
0.38750  4.323112  1.296778
0.39000  4.314297  1.234398
0.39250  4.302038  1.175695
0.39500  4.287020  1.120707
0.39750  4.269844  1.069373
0.40000  4.251025  1.021564
0.40250  4.231001  0.977108
0.40500  4.210136  0.935808
0.40750  4.188729  0.897457
0.41000  4.167022  0.861840
0.41250  4.145212  0.828754
0.41500  4.123454  0.797997
0.41750  4.101871  0.769381
0.42000  4.080561  0.742730
0.42250  4.059594  0.717880
0.42500  4.039054  0.694695
0.42750  4.018736  0.672927
0.43000  3.998538  0.652401
0.43250  3.979419  0.633406
0.43500  3.960763  0.615560
0.43750  3.942613  0.598785
0.44000  3.924970  0.582995
0.44250  3.907833  0.568111
0.44500  3.891194  0.554060
0.44750  3.875047  0.540777
0.45000  3.859379  0.528201
0.45250  3.844179  0.516277
0.45500  3.829443  0.504962
0.45750  3.815154  0.494206
0.46000  3.801298  0.483968
0.46250  3.787864  0.474209
0.46500  3.774838  0.464896
0.46750  3.762209  0.455995
0.47000  3.749961  0.447478
0.47250  3.738084  0.439319
0.47500  3.726563  0.431490
0.47750  3.715389  0.423970
0.48000  3.704550  0.416736
0.48250  3.694032  0.409770
0.48500  3.683826  0.403053
0.48750  3.673921  0.396569
0.49000  3.664306  0.390300
0.49250  3.654973  0.384233
0.49500  3.645910  0.378353
0.49750  3.637108  0.372646
0.50000  3.628559  0.367103
0.50250  3.620254  0.361710
0.50500  3.612183  0.356458
0.50750  3.604340  0.351335
0.51000  3.596717  0.346332
0.51250  3.589305  0.341441
0.51500  3.582095  0.336651
0.51750  3.575081  0.331956
0.52000  3.568260  0.327347
0.52250  3.561621  0.322817
0.52500  3.555158  0.318358
0.52750  3.548865  0.313964
0.53000  3.542735  0.309628
0.53250  3.536761  0.305341
0.53500  3.530938  0.301099
0.53750  3.525259  0.296894
0.54000  3.519718  0.292721
0.54250  3.514309  0.288573
0.54500  3.509024  0.284443
0.54750  3.503858  0.280325
0.55000  3.498803  0.276212
0.55250  3.493852  0.272099
0.55500  3.488998  0.267979
0.55750  3.484232  0.263845
0.56000  3.479547  0.259688
0.56250  3.474930  0.255504
0.56500  3.470372  0.251284
0.56750  3.465859  0.247021
0.57000  3.461378  0.242708
0.57250  3.456910  0.238338
0.57500  3.452437  0.233906
0.57750  3.447931  0.229406
0.58000  3.443366  0.224841
0.58250  3.438707  0.220214
0.58500  3.433914  0.215540
0.58750  3.428947  0.210849
0.59000  3.423769  0.206187
0.59250  3.418355  0.201621
0.59500  3.412710  0.197230
0.59750  3.406871  0.193093
0.60000  3.400908  0.189263
0.60250  3.394898  0.185761
0.60500  3.388916  0.182576
0.60750  3.383015  0.179675
0.61000  3.377229  0.177022
0.61250  3.371580  0.174577
0.61500  3.366073  0.172308
0.61750  3.360710  0.170187
0.62000  3.355488  0.168192
0.62250  3.350401  0.166304
0.62500  3.345446  0.164508
0.62750  3.340614  0.162793
0.63000  3.335900  0.161149
0.63250  3.331299  0.159569
0.63500  3.326804  0.158045
0.63750  3.322411  0.156573
0.64000  3.318115  0.155148
0.64250  3.313911  0.153766
0.64500  3.309794  0.152424
0.64750  3.305762  0.151118
0.65000  3.301812  0.149847
0.65250  3.297940  0.148608
0.65500  3.294142  0.147399
0.65750  3.290417  0.146219
0.66000  3.286760  0.145067
0.66250  3.283171  0.143940
0.66500  3.279646  0.142837
0.66750  3.276184  0.141758
0.67000  3.272782  0.140700
0.67250  3.269439  0.139665
0.67500  3.266151  0.138650
0.67750  3.262919  0.137654
0.68000  3.259740  0.136678
0.68250  3.256613  0.135719
0.68500  3.253537  0.134778
0.68750  3.250509  0.133855
0.69000  3.247529  0.132947
0.69250  3.244594  0.132056
0.69500  3.241705  0.131179
0.69750  3.238861  0.130317
0.70000  3.236058  0.129471
0.70250  3.233298  0.128638
0.70500  3.230579  0.127819
0.70750  3.227899  0.127013
0.71000  3.225257  0.126220
0.71250  3.222654  0.125439
0.71500  3.220088  0.124670
0.71750  3.217557  0.123913
0.72000  3.215062  0.123168
0.72250  3.212602  0.122434
0.72500  3.210177  0.121711
0.72750  3.207784  0.120998
0.73000  3.205423  0.120296
0.73250  3.203094  0.119605
0.73500  3.200796  0.118923
0.73750  3.198528  0.118251
0.74000  3.196290  0.117588
0.74250  3.194082  0.116934
0.74500  3.191902  0.116290
0.74750  3.189750  0.115654
0.75000  3.187626  0.115027
0.75250  3.185528  0.114408
0.75500  3.183456  0.113798
0.75750  3.181411  0.113195
0.76000  3.179391  0.112601
0.76250  3.177397  0.112015
0.76500  3.175426  0.111436
0.76750  3.173480  0.110864
0.77000  3.171557  0.110300
0.77250  3.169657  0.109742
0.77500  3.167780  0.109192
0.77750  3.165925  0.108648
0.78000  3.164092  0.108112
0.78250  3.162281  0.107581
0.78500  3.160490  0.107058
0.78750  3.158721  0.106540
0.79000  3.156973  0.106029
0.79250  3.155244  0.105524
0.79500  3.153535  0.105025
0.79750  3.151846  0.104531
0.80000  3.150176  0.104044
0.80250  3.148524  0.103563
0.80500  3.146890  0.103086
0.80750  3.145275  0.102615
0.81000  3.143678  0.102149
0.81250  3.142098  0.101689
0.81500  3.140536  0.101234
0.81750  3.138990  0.100784
0.82000  3.137462  0.100339
0.82250  3.135950  0.099899
0.82500  3.134454  0.099463
0.82750  3.132974  0.099033
0.83000  3.131510  0.098607
0.83250  3.130061  0.098185
0.83500  3.128628  0.097768
0.83750  3.127210  0.097356
0.84000  3.125805  0.096947
0.84250  3.124415  0.096543
0.84500  3.123041  0.096144
0.84750  3.121680  0.095748
0.85000  3.120333  0.095357
0.85250  3.119000  0.094969
0.85500  3.117681  0.094585
0.85750  3.116374  0.094206
0.86000  3.115081  0.093830
0.86250  3.113800  0.093457
0.86500  3.112533  0.093089
0.86750  3.111278  0.092725
0.87000  3.110035  0.092363
0.87250  3.108804  0.092005
0.87500  3.107586  0.091652
0.87750  3.106379  0.091301
0.88000  3.105184  0.090953
0.88250  3.104001  0.090609
0.88500  3.102829  0.090268
0.88750  3.101668  0.089931
0.89000  3.100518  0.089596
0.89250  3.099380  0.089265
0.89500  3.098251  0.088936
0.89750  3.097134  0.088612
0.90000  3.096027  0.088289
0.90250  3.094930  0.087970
0.90500  3.093843  0.087653
0.90750  3.092766  0.087340
0.91000  3.091700  0.087030
0.91250  3.090642  0.086721
0.91500  3.089596  0.086416
0.91750  3.088558  0.086114
0.92000  3.087529  0.085815
0.92250  3.086510  0.085517
0.92500  3.085500  0.085223
0.92750  3.084500  0.084931
0.93000  3.083508  0.084642
0.93250  3.082525  0.084355
0.93500  3.081551  0.084071
0.93750  3.080585  0.083789
0.94000  3.079628  0.083509
0.94250  3.078679  0.083231
0.94500  3.077739  0.082956
0.94750  3.076806  0.082684
0.95000  3.075881  0.082413
0.95250  3.074965  0.082145
0.95500  3.074056  0.081880
0.95750  3.073156  0.081616
0.96000  3.072263  0.081354
0.96250  3.071378  0.081095
0.96500  3.070499  0.080839
0.96750  3.069629  0.080583
0.97000  3.068766  0.080330
0.97250  3.067909  0.080079
0.97500  3.067061  0.079830
0.97750  3.066219  0.079582
0.98000  3.065384  0.079337
0.98250  3.064556  0.079094
0.98500  3.063735  0.078853
0.98750  3.062921  0.078614
0.99000  3.062113  0.078376
0.99250  3.061312  0.078140
0.99500  3.060517  0.077906
0.99750  3.059728  0.077674
1.00000  3.058947  0.077444
