; From SOPRA S.A. http://www.sopra-sa.com/indices.htm
; Filename    Symbol               Range (nm)     Description
; AGAINP10    (Al1Ga0)0.5In0.5P   225     1000    Aluminum Gallium Indium Phosphide (100% Al)
; lambda/um       n         k
0.22500  1.531465  2.563804
0.22750  1.574060  2.616320
0.23000  1.622292  2.671360
0.23250  1.677386  2.728588
0.23500  1.740749  2.787354
0.23750  1.813949  2.846553
0.24000  1.898605  2.904456
0.24250  1.996186  2.958518
0.24500  2.107665  3.005242
0.24750  2.232986  3.040160
0.25000  2.370401  3.058124
0.25250  2.515853  3.054038
0.25500  2.662699  3.024069
0.25750  2.802035  2.967198
0.26000  2.924195  2.887700
0.26250  3.025815  2.793728
0.26500  3.104156  2.690141
0.26750  3.158189  2.584893
0.27000  3.190558  2.484872
0.27250  3.205650  2.394692
0.27500  3.208262  2.316764
0.27750  3.202791  2.251798
0.28000  3.192883  2.199408
0.28250  3.181378  2.158584
0.28500  3.170369  2.128143
0.28750  3.161164  2.107345
0.29000  3.155559  2.093592
0.29250  3.154099  2.086392
0.29500  3.157503  2.084624
0.29750  3.166363  2.087235
0.30000  3.181203  2.093197
0.30250  3.202494  2.101443
0.30500  3.230644  2.110836
0.30750  3.265966  2.120122
0.31000  3.308624  2.127906
0.31250  3.358558  2.132653
0.31500  3.415393  2.132720
0.31750  3.478368  2.126432
0.32000  3.546269  2.112206
0.32250  3.617439  2.088702
0.32500  3.689750  2.055033
0.32750  3.760897  2.010867
0.33000  3.828492  1.956542
0.33250  3.890335  1.893062
0.33500  3.944631  1.821980
0.33750  3.990138  1.745222
0.34000  4.026228  1.664855
0.34250  4.052852  1.582892
0.34500  4.070436  1.501126
0.34750  4.079751  1.421028
0.35000  4.081768  1.343721
0.35250  4.077539  1.269991
0.35500  4.068117  1.200321
0.35750  4.054481  1.134958
0.36000  4.037511  1.073962
0.36250  4.017977  1.017262
0.36500  3.996524  0.964692
0.36750  3.973694  0.916037
0.37000  3.949930  0.871043
0.37250  3.925590  0.829448
0.37500  3.900959  0.790990
0.37750  3.876263  0.755409
0.38000  3.851679  0.722466
0.38250  3.827342  0.691932
0.38500  3.803354  0.663594
0.38750  3.779786  0.637256
0.39000  3.756709  0.612759
0.39250  3.734179  0.589942
0.39500  3.711996  0.568568
0.39750  3.689928  0.548406
0.40000  3.669105  0.529802
0.40250  3.648817  0.512349
0.40500  3.629098  0.495966
0.40750  3.609941  0.480567
0.41000  3.591336  0.466073
0.41250  3.573271  0.452411
0.41500  3.555732  0.439517
0.41750  3.538705  0.427333
0.42000  3.522174  0.415804
0.42250  3.506124  0.404883
0.42500  3.490540  0.394525
0.42750  3.475406  0.384690
0.43000  3.460706  0.375343
0.43250  3.446425  0.366448
0.43500  3.432548  0.357975
0.43750  3.419061  0.349897
0.44000  3.405951  0.342188
0.44250  3.393201  0.334823
0.44500  3.380801  0.327782
0.44750  3.368737  0.321045
0.45000  3.356995  0.314590
0.45250  3.345564  0.308403
0.45500  3.334437  0.302469
0.45750  3.323601  0.296773
0.46000  3.313044  0.291300
0.46250  3.302757  0.286038
0.46500  3.292730  0.280975
0.46750  3.282954  0.276102
0.47000  3.273421  0.271407
0.47250  3.264122  0.266882
0.47500  3.255048  0.262516
0.47750  3.246192  0.258303
0.48000  3.237547  0.254234
0.48250  3.229107  0.250303
0.48500  3.220863  0.246502
0.48750  3.212809  0.242826
0.49000  3.204938  0.239269
0.49250  3.197247  0.235824
0.49500  3.189728  0.232487
0.49750  3.182376  0.229253
0.50000  3.175186  0.226117
0.50250  3.168151  0.223074
0.50500  3.161268  0.220122
0.50750  3.154534  0.217255
0.51000  3.147941  0.214471
0.51250  3.141487  0.211766
0.51500  3.135165  0.209136
0.51750  3.128973  0.206578
0.52000  3.122909  0.204090
0.52250  3.116967  0.201669
0.52500  3.111145  0.199311
0.52750  3.105438  0.197016
0.53000  3.099843  0.194780
0.53250  3.094358  0.192601
0.53500  3.088978  0.190476
0.53750  3.083702  0.188404
0.54000  3.078526  0.186383
0.54250  3.073447  0.184412
0.54500  3.068464  0.182488
0.54750  3.063573  0.180609
0.55000  3.058772  0.178774
0.55250  3.054058  0.176981
0.55500  3.049430  0.175231
0.55750  3.044884  0.173519
0.56000  3.040420  0.171846
0.56250  3.036035  0.170209
0.56500  3.031725  0.168609
0.56750  3.027492  0.167043
0.57000  3.023331  0.165511
0.57250  3.019241  0.164011
0.57500  3.015222  0.162542
0.57750  3.011268  0.161104
0.58000  3.007382  0.159695
0.58250  3.003561  0.158315
0.58500  2.999801  0.156963
0.58750  2.996104  0.155638
0.59000  2.992468  0.154338
0.59250  2.988889  0.153065
0.59500  2.985368  0.151816
0.59750  2.981903  0.150591
0.60000  2.978493  0.149389
0.60250  2.975137  0.148209
0.60500  2.971832  0.147052
0.60750  2.968579  0.145916
0.61000  2.965376  0.144800
0.61250  2.962222  0.143705
0.61500  2.959115  0.142629
0.61750  2.956055  0.141572
0.62000  2.953042  0.140534
0.62250  2.950073  0.139514
0.62500  2.947148  0.138511
0.62750  2.944265  0.137527
0.63000  2.941425  0.136559
0.63250  2.938625  0.135606
0.63500  2.935867  0.134669
0.63750  2.933148  0.133749
0.64000  2.930467  0.132844
0.64250  2.927824  0.131952
0.64500  2.925218  0.131075
0.64750  2.922648  0.130213
0.65000  2.920114  0.129364
0.65250  2.917616  0.128528
0.65500  2.915151  0.127705
0.65750  2.912720  0.126895
0.66000  2.910322  0.126098
0.66250  2.907957  0.125313
0.66500  2.905623  0.124540
0.66750  2.903320  0.123777
0.67000  2.901047  0.123027
0.67250  2.898805  0.122287
0.67500  2.896591  0.121558
0.67750  2.894407  0.120841
0.68000  2.892251  0.120133
0.68250  2.890122  0.119435
0.68500  2.888021  0.118748
0.68750  2.885947  0.118070
0.69000  2.883898  0.117401
0.69250  2.881876  0.116742
0.69500  2.879879  0.116092
0.69750  2.877906  0.115450
0.70000  2.875958  0.114818
0.70250  2.874034  0.114194
0.70500  2.872134  0.113579
0.70750  2.870257  0.112971
0.71000  2.868402  0.112372
0.71250  2.866569  0.111780
0.71500  2.864760  0.111196
0.71750  2.862971  0.110620
0.72000  2.861204  0.110051
0.72250  2.859458  0.109490
0.72500  2.857732  0.108935
0.72750  2.856026  0.108387
0.73000  2.854341  0.107847
0.73250  2.852674  0.107313
0.73500  2.851027  0.106785
0.73750  2.849399  0.106264
0.74000  2.847789  0.105750
0.74250  2.846198  0.105242
0.74500  2.844625  0.104739
0.74750  2.843069  0.104244
0.75000  2.841531  0.103754
0.75250  2.840010  0.103269
0.75500  2.838506  0.102790
0.75750  2.837018  0.102316
0.76000  2.835547  0.101849
0.76250  2.834092  0.101386
0.76500  2.832652  0.100929
0.76750  2.831228  0.100478
0.77000  2.829820  0.100031
0.77250  2.828426  0.099589
0.77500  2.827048  0.099152
0.77750  2.825684  0.098721
0.78000  2.824335  0.098293
0.78250  2.822999  0.097870
0.78500  2.821678  0.097453
0.78750  2.820371  0.097039
0.79000  2.819077  0.096631
0.79250  2.817796  0.096226
0.79500  2.816530  0.095826
0.79750  2.815276  0.095429
0.80000  2.814034  0.095038
0.80250  2.812806  0.094650
0.80500  2.811589  0.094267
0.80750  2.810385  0.093887
0.81000  2.809193  0.093511
0.81250  2.808014  0.093139
0.81500  2.806845  0.092771
0.81750  2.805689  0.092407
0.82000  2.804544  0.092046
0.82250  2.803411  0.091689
0.82500  2.802287  0.091335
0.82750  2.801175  0.090985
0.83000  2.800074  0.090638
0.83250  2.798984  0.090295
0.83500  2.797904  0.089956
0.83750  2.796834  0.089619
0.84000  2.795775  0.089285
0.84250  2.794725  0.088955
0.84500  2.793686  0.088629
0.84750  2.792656  0.088305
0.85000  2.791637  0.087984
0.85250  2.790627  0.087666
0.85500  2.789627  0.087351
0.85750  2.788635  0.087040
0.86000  2.787653  0.086730
0.86250  2.786679  0.086425
0.86500  2.785714  0.086121
0.86750  2.784759  0.085821
0.87000  2.783812  0.085523
0.87250  2.782875  0.085228
0.87500  2.781945  0.084936
0.87750  2.781024  0.084646
0.88000  2.780110  0.084358
0.88250  2.779206  0.084074
0.88500  2.778309  0.083792
0.88750  2.777420  0.083511
0.89000  2.776539  0.083234
0.89250  2.775666  0.082960
0.89500  2.774801  0.082687
0.89750  2.773942  0.082416
0.90000  2.773092  0.082149
0.90250  2.772249  0.081883
0.90500  2.771414  0.081620
0.90750  2.770584  0.081359
0.91000  2.769763  0.081101
0.91250  2.768948  0.080844
0.91500  2.768141  0.080590
0.91750  2.767341  0.080337
0.92000  2.766546  0.080087
0.92250  2.765760  0.079839
0.92500  2.764979  0.079592
0.92750  2.764205  0.079348
0.93000  2.763438  0.079106
0.93250  2.762677  0.078866
0.93500  2.761922  0.078627
0.93750  2.761173  0.078391
0.94000  2.760431  0.078156
0.94250  2.759694  0.077923
0.94500  2.758965  0.077692
0.94750  2.758240  0.077463
0.95000  2.757521  0.077237
0.95250  2.756808  0.077011
0.95500  2.756102  0.076787
0.95750  2.755400  0.076565
0.96000  2.754705  0.076345
0.96250  2.754015  0.076127
0.96500  2.753331  0.075910
0.96750  2.752651  0.075694
0.97000  2.751978  0.075480
0.97250  2.751310  0.075268
0.97500  2.750646  0.075058
0.97750  2.749988  0.074849
0.98000  2.749335  0.074642
0.98250  2.748687  0.074437
0.98500  2.748044  0.074232
0.98750  2.747407  0.074029
0.99000  2.746774  0.073829
0.99250  2.746146  0.073629
0.99500  2.745523  0.073430
0.99750  2.744904  0.073234
1.00000  2.744291  0.073038
