; From SOPRA S.A. http://www.sopra-sa.com/indices.htm
; Filename    Symbol               Range (nm)     Description
; ALAS052T    AlAs                275      987    Aluminum Arsenide (Temp: 52 C)
; lambda/um       n         k
0.27583  4.396800  2.566100
0.27675  4.378900  2.515000
0.27768  4.355600  2.467300
0.27862  4.331000  2.433200
0.27956  4.308500  2.405400
0.28051  4.287100  2.377900
0.28146  4.263700  2.353700
0.28243  4.240900  2.335200
0.28339  4.221500  2.322600
0.28437  4.202200  2.312600
0.28535  4.185400  2.302700
0.28634  4.175800  2.293600
0.28734  4.169300  2.288200
0.28834  4.166200  2.288300
0.28935  4.167500  2.293500
0.29036  4.171300  2.301200
0.29139  4.177900  2.310100
0.29242  4.187900  2.323000
0.29346  4.202100  2.335400
0.29450  4.221800  2.342600
0.29555  4.247200  2.347900
0.29662  4.276200  2.353800
0.29768  4.308500  2.361600
0.29876  4.345000  2.370100
0.29984  4.385600  2.377000
0.30093  4.430600  2.379300
0.30203  4.480700  2.374100
0.30314  4.536000  2.360500
0.30426  4.593800  2.339300
0.30538  4.652200  2.312200
0.30651  4.712400  2.281800
0.30766  4.772600  2.249500
0.30880  4.830700  2.216200
0.30996  4.884500  2.182100
0.31113  4.935100  2.143900
0.31231  4.987800  2.099500
0.31349  5.042600  2.048200
0.31468  5.096600  1.986500
0.31589  5.148300  1.912100
0.31710  5.195700  1.826800
0.31832  5.238000  1.731700
0.31955  5.274100  1.627300
0.32079  5.297800  1.518700
0.32204  5.303900  1.410200
0.32330  5.294800  1.303200
0.32457  5.270700  1.203800
0.32585  5.230200  1.117600
0.32714  5.176900  1.043700
0.32844  5.114900  0.981760
0.32975  5.047600  0.930770
0.33107  4.983600  0.885180
0.33240  4.928100  0.842580
0.33374  4.878600  0.803290
0.33510  4.834400  0.765500
0.33646  4.795700  0.727460
0.33783  4.757800  0.690740
0.33922  4.720200  0.657870
0.34062  4.684200  0.628060
0.34203  4.647800  0.600750
0.34345  4.612500  0.575730
0.34488  4.580600  0.551760
0.34633  4.550700  0.530610
0.34778  4.520800  0.513410
0.34925  4.491400  0.498230
0.35074  4.463500  0.483740
0.35223  4.436700  0.468940
0.35374  4.410000  0.453580
0.35526  4.384200  0.437950
0.35679  4.359200  0.422980
0.35834  4.334800  0.408870
0.35990  4.311600  0.393640
0.36147  4.289800  0.378260
0.36306  4.268800  0.364740
0.36466  4.248100  0.352090
0.36628  4.228200  0.339770
0.36791  4.209200  0.328160
0.36955  4.190800  0.316350
0.37121  4.173200  0.303820
0.37289  4.155700  0.291740
0.37458  4.137500  0.280120
0.37628  4.119500  0.267360
0.37800  4.102600  0.253680
0.37974  4.086200  0.240990
0.38149  4.069600  0.230100
0.38326  4.053600  0.220000
0.38505  4.038700  0.209210
0.38685  4.023600  0.197930
0.38867  4.006800  0.186750
0.39050  3.990100  0.174970
0.39236  3.974200  0.162980
0.39423  3.958900  0.152040
0.39612  3.942400  0.141630
0.39803  3.925400  0.130810
0.39995  3.909800  0.119940
0.40190  3.893300  0.109310
0.40386  3.875800  0.098631
0.40584  3.858800  0.087675
0.40785  3.840200  0.076977
0.40987  3.821900  0.067016
0.41191  3.805000  0.057591
0.41397  3.786000  0.048734
0.41606  3.765700  0.041056
0.41816  3.746600  0.035004
0.42029  3.728000  0.029660
0.42244  3.710100  0.023670
0.42461  3.692700  0.017130
0.42680  3.674400  0.010544
0.42901  3.654900  0.004604
0.43125  3.635300  0.000983
0.43351  3.617500  0.000000
0.43580  3.600800  0.000000
0.43811  3.583800  0.000000
0.44044  3.566800  0.000000
0.44280  3.552200  0.000000
0.44519  3.539100  0.000000
0.44760  3.524700  0.000000
0.45004  3.510800  0.000000
0.45250  3.498200  0.000000
0.45499  3.486700  0.000000
0.45751  3.476500  0.000000
0.46006  3.465700  0.000000
0.46263  3.454500  0.000000
0.46524  3.442700  0.000000
0.46787  3.430300  0.000000
0.47053  3.419000  0.000000
0.47323  3.408800  0.000000
0.47595  3.399600  0.000000
0.47871  3.391400  0.000000
0.48150  3.382700  0.000000
0.48432  3.373300  0.000000
0.48717  3.363300  0.000000
0.49006  3.352800  0.000000
0.49298  3.344000  0.000000
0.49594  3.336200  0.000000
0.49893  3.326900  0.000000
0.50196  3.318700  0.000000
0.50503  3.312100  0.000000
0.50814  3.304100  0.000000
0.51128  3.294700  0.000000
0.51446  3.287000  0.000000
0.51768  3.280300  0.000000
0.52095  3.272000  0.000000
0.52425  3.264000  0.000000
0.52760  3.257600  0.000000
0.53099  3.252100  0.000000
0.53442  3.245200  0.000000
0.53790  3.237600  0.000000
0.54142  3.231000  0.000000
0.54499  3.223700  0.000000
0.54861  3.216400  0.000000
0.55227  3.210000  0.000000
0.55599  3.204600  0.000000
0.55975  3.200000  0.000000
0.56357  3.193900  0.000000
0.56744  3.186400  0.000000
0.57136  3.180600  0.000000
0.57534  3.176400  0.000000
0.57937  3.170700  0.000000
0.58346  3.164400  0.000000
0.58761  3.159600  0.000000
0.59181  3.154900  0.000000
0.59608  3.149600  0.000000
0.60041  3.143700  0.000000
0.60481  3.137700  0.000000
0.60926  3.132600  0.000000
0.61379  3.126800  0.000000
0.61838  3.121200  0.000000
0.62304  3.116300  0.000000
0.62777  3.112300  0.000000
0.63258  3.108300  0.000000
0.63746  3.103700  0.000000
0.64241  3.099100  0.000000
0.64744  3.094600  0.000000
0.65255  3.090900  0.000000
0.65775  3.087200  0.000000
0.66302  3.082900  0.000000
0.66838  3.078000  0.000000
0.67383  3.072300  0.000000
0.67937  3.067400  0.000000
0.68500  3.064100  0.000000
0.69073  3.060800  0.000000
0.69655  3.056100  0.000000
0.70247  3.052200  0.000000
0.70849  3.049900  0.000000
0.71461  3.046100  0.000000
0.72084  3.040900  0.000000
0.72719  3.037200  0.000000
0.73364  3.034300  0.000000
0.74021  3.030100  0.000000
0.74690  3.026600  0.000000
0.75371  3.023800  0.000000
0.76065  3.019600  0.000000
0.76771  3.015500  0.000000
0.77491  3.012200  0.000000
0.78224  3.009700  0.000000
0.78971  3.007300  0.000000
0.79733  3.004100  0.000000
0.80510  3.001000  0.000000
0.81302  2.997800  0.000000
0.82109  2.995500  0.000000
0.82933  2.992500  0.000000
0.83774  2.988900  0.000000
0.84632  2.986700  0.000000
0.85507  2.984500  0.000000
0.86401  2.981700  0.000000
0.87314  2.978900  0.000000
0.88246  2.975500  0.000000
0.89198  2.971300  0.000000
0.90171  2.968700  0.000000
0.91166  2.967500  0.000000
0.92182  2.965700  0.000000
0.93222  2.963100  0.000000
0.94285  2.960600  0.000000
0.95373  2.958200  0.000000
0.96487  2.955100  0.000000
0.97626  2.952000  0.000000
0.98793  2.950300  0.000000
