; From SOPRA S.A. http://www.sopra-sa.com/indices.htm
; Filename    Symbol               Range (nm)     Description
; ALAS361T    AlAs                275      987    Aluminum Arsenide (Temp: 361 C)
; lambda/um       n         k
0.27583  4.316700  2.941300
0.27675  4.327900  2.895800
0.27768  4.334300  2.847000
0.27862  4.339600  2.794600
0.27956  4.340000  2.742700
0.28051  4.336200  2.691600
0.28146  4.329000  2.640900
0.28243  4.316900  2.592600
0.28339  4.305700  2.546600
0.28437  4.297700  2.505300
0.28535  4.290500  2.469200
0.28634  4.282900  2.438500
0.28734  4.275800  2.413300
0.28834  4.270100  2.390400
0.28935  4.262100  2.369300
0.29036  4.252000  2.351200
0.29139  4.242800  2.336000
0.29242  4.235800  2.322900
0.29346  4.231500  2.310600
0.29450  4.228800  2.297700
0.29555  4.227800  2.283400
0.29662  4.229200  2.268900
0.29768  4.233700  2.254800
0.29876  4.241400  2.241400
0.29984  4.250900  2.231600
0.30093  4.263200  2.225900
0.30203  4.278300  2.221500
0.30314  4.293700  2.217400
0.30426  4.309600  2.213100
0.30538  4.327500  2.207700
0.30651  4.347800  2.200700
0.30766  4.369300  2.191900
0.30880  4.392000  2.181500
0.30996  4.418000  2.169300
0.31113  4.446800  2.155300
0.31231  4.477700  2.140200
0.31349  4.508700  2.124000
0.31468  4.539000  2.106700
0.31589  4.571400  2.087300
0.31710  4.605900  2.063900
0.31832  4.640700  2.037100
0.31955  4.675700  2.005700
0.32079  4.711200  1.970000
0.32204  4.747300  1.930900
0.32330  4.784100  1.885900
0.32457  4.817900  1.838000
0.32585  4.844400  1.790100
0.32714  4.864400  1.741300
0.32844  4.879900  1.690400
0.32975  4.890700  1.636300
0.33107  4.897300  1.579500
0.33240  4.902000  1.519700
0.33374  4.905500  1.457600
0.33510  4.908100  1.393700
0.33646  4.910400  1.328000
0.33783  4.909100  1.264100
0.33922  4.901600  1.201900
0.34062  4.889800  1.140200
0.34203  4.874000  1.081800
0.34345  4.854300  1.026500
0.34488  4.832200  0.973570
0.34633  4.808400  0.924660
0.34778  4.782700  0.879670
0.34925  4.755400  0.838020
0.35074  4.726700  0.799920
0.35223  4.697300  0.764420
0.35374  4.668100  0.729960
0.35526  4.639400  0.697180
0.35679  4.610200  0.667460
0.35834  4.580900  0.639640
0.35990  4.552100  0.613100
0.36147  4.523900  0.589100
0.36306  4.496600  0.567070
0.36466  4.470300  0.545950
0.36628  4.444700  0.526020
0.36791  4.419600  0.506770
0.36955  4.395600  0.487470
0.37121  4.372800  0.468030
0.37289  4.350500  0.448490
0.37458  4.328300  0.429760
0.37628  4.306100  0.412630
0.37800  4.284100  0.396750
0.37974  4.262400  0.381480
0.38149  4.240900  0.366660
0.38326  4.219600  0.352250
0.38505  4.198900  0.338000
0.38685  4.178600  0.324600
0.38867  4.158800  0.311910
0.39050  4.139700  0.298770
0.39236  4.121000  0.285410
0.39423  4.102700  0.272380
0.39612  4.084800  0.259740
0.39803  4.067200  0.247640
0.39995  4.049800  0.236490
0.40190  4.032400  0.225890
0.40386  4.014600  0.215480
0.40584  3.996400  0.205830
0.40785  3.978500  0.195590
0.40987  3.962300  0.183630
0.41191  3.947400  0.171090
0.41397  3.932100  0.158980
0.41606  3.915100  0.147180
0.41816  3.896200  0.135690
0.42029  3.877700  0.125770
0.42244  3.863500  0.117570
0.42461  3.852100  0.109980
0.42680  3.837700  0.102300
0.42901  3.820500  0.094876
0.43125  3.804000  0.088244
0.43351  3.788700  0.082163
0.43580  3.772800  0.076467
0.43811  3.755600  0.071580
0.44044  3.738400  0.067628
0.44280  3.723900  0.063888
0.44519  3.710900  0.059582
0.44760  3.696700  0.055158
0.45004  3.683200  0.050790
0.45250  3.670500  0.045087
0.45499  3.657500  0.038879
0.45751  3.644900  0.033823
0.46006  3.631800  0.029258
0.46263  3.618200  0.024568
0.46524  3.603900  0.019903
0.46787  3.588800  0.015286
0.47053  3.574200  0.010549
0.47323  3.559600  0.005491
0.47595  3.544300  0.001425
0.47871  3.529600  0.000000
0.48150  3.515700  0.000000
0.48432  3.502300  0.000000
0.48717  3.489000  0.000000
0.49006  3.475400  0.000000
0.49298  3.463800  0.000000
0.49594  3.453400  0.000000
0.49893  3.441900  0.000000
0.50196  3.431400  0.000000
0.50503  3.422700  0.000000
0.50814  3.412700  0.000000
0.51128  3.401500  0.000000
0.51446  3.392100  0.000000
0.51768  3.383700  0.000000
0.52095  3.373900  0.000000
0.52425  3.364400  0.000000
0.52760  3.356500  0.000000
0.53099  3.349500  0.000000
0.53442  3.341300  0.000000
0.53790  3.332600  0.000000
0.54142  3.324700  0.000000
0.54499  3.316200  0.000000
0.54861  3.307900  0.000000
0.55227  3.300500  0.000000
0.55599  3.293900  0.000000
0.55975  3.288200  0.000000
0.56357  3.281100  0.000000
0.56744  3.272800  0.000000
0.57136  3.266000  0.000000
0.57534  3.260800  0.000000
0.57937  3.254300  0.000000
0.58346  3.247100  0.000000
0.58761  3.241500  0.000000
0.59181  3.236000  0.000000
0.59608  3.230000  0.000000
0.60041  3.223300  0.000000
0.60481  3.216700  0.000000
0.60926  3.210900  0.000000
0.61379  3.204400  0.000000
0.61838  3.198100  0.000000
0.62304  3.192600  0.000000
0.62777  3.187900  0.000000
0.63258  3.183400  0.000000
0.63746  3.178100  0.000000
0.64241  3.172900  0.000000
0.64744  3.167900  0.000000
0.65255  3.163600  0.000000
0.65775  3.159400  0.000000
0.66302  3.154500  0.000000
0.66838  3.149000  0.000000
0.67383  3.142900  0.000000
0.67937  3.137600  0.000000
0.68500  3.133800  0.000000
0.69073  3.130000  0.000000
0.69655  3.124900  0.000000
0.70247  3.120600  0.000000
0.70849  3.117700  0.000000
0.71461  3.113500  0.000000
0.72084  3.108000  0.000000
0.72719  3.103900  0.000000
0.73364  3.100600  0.000000
0.74021  3.096000  0.000000
0.74690  3.092100  0.000000
0.75371  3.088900  0.000000
0.76065  3.084500  0.000000
0.76771  3.080000  0.000000
0.77491  3.076400  0.000000
0.78224  3.073500  0.000000
0.78971  3.070600  0.000000
0.79733  3.067100  0.000000
0.80510  3.063600  0.000000
0.81302  3.060300  0.000000
0.82109  3.057600  0.000000
0.82933  3.054300  0.000000
0.83774  3.050400  0.000000
0.84632  3.047900  0.000000
0.85507  3.045500  0.000000
0.86401  3.042400  0.000000
0.87314  3.039300  0.000000
0.88246  3.035600  0.000000
0.89198  3.031300  0.000000
0.90171  3.028400  0.000000
0.91166  3.026900  0.000000
0.92182  3.024800  0.000000
0.93222  3.022000  0.000000
0.94285  3.019300  0.000000
0.95373  3.016600  0.000000
0.96487  3.013300  0.000000
0.97626  3.010000  0.000000
0.98793  3.008100  0.000000
