; From SOPRA S.A. http://www.sopra-sa.com/indices.htm
; Filename    Symbol               Range (nm)     Description
; ALAS072T    AlAs                275      987    Aluminum Arsenide (Temp: 72 C)
; lambda/um       n         k
0.27583  4.371000  2.599300
0.27675  4.355200  2.555500
0.27768  4.337900  2.516600
0.27862  4.318300  2.477200
0.27956  4.296900  2.435700
0.28051  4.279100  2.401300
0.28146  4.263100  2.375600
0.28243  4.245300  2.354900
0.28339  4.226900  2.337400
0.28437  4.211300  2.323700
0.28535  4.202100  2.313500
0.28634  4.197900  2.304900
0.28734  4.194100  2.302500
0.28834  4.190500  2.304400
0.28935  4.189300  2.305600
0.29036  4.189900  2.308100
0.29139  4.192000  2.312700
0.29242  4.198500  2.319600
0.29346  4.212100  2.330400
0.29450  4.230900  2.341400
0.29555  4.251900  2.346600
0.29662  4.277500  2.350900
0.29768  4.309300  2.359400
0.29876  4.345700  2.367300
0.29984  4.386000  2.369400
0.30093  4.429700  2.367200
0.30203  4.474800  2.363500
0.30314  4.521300  2.354200
0.30426  4.570000  2.337500
0.30538  4.620700  2.316300
0.30651  4.673200  2.290100
0.30766  4.728000  2.260900
0.30880  4.784600  2.230600
0.30996  4.839800  2.196600
0.31113  4.892700  2.155700
0.31231  4.946600  2.108400
0.31349  5.001500  2.056000
0.31468  5.055500  1.994400
0.31589  5.108300  1.923700
0.31710  5.158600  1.847900
0.31832  5.202800  1.767200
0.31955  5.238700  1.679000
0.32079  5.265300  1.581100
0.32204  5.279200  1.474900
0.32330  5.283300  1.367400
0.32457  5.279900  1.267300
0.32585  5.261100  1.177100
0.32714  5.224600  1.095000
0.32844  5.173400  1.024100
0.32975  5.111600  0.967060
0.33107  5.046200  0.919600
0.33240  4.981800  0.875060
0.33374  4.920800  0.830030
0.33510  4.865400  0.785820
0.33646  4.820400  0.746210
0.33783  4.785300  0.712510
0.33922  4.749400  0.682560
0.34062  4.711000  0.654050
0.34203  4.673600  0.626180
0.34345  4.637200  0.599400
0.34488  4.603500  0.574290
0.34633  4.572600  0.550200
0.34778  4.543000  0.527090
0.34925  4.513500  0.506810
0.35074  4.484800  0.489600
0.35223  4.457000  0.474250
0.35374  4.428800  0.460900
0.35526  4.401400  0.447340
0.35679  4.376000  0.431010
0.35834  4.352000  0.414590
0.35990  4.328900  0.399420
0.36147  4.306600  0.384130
0.36306  4.285100  0.369860
0.36466  4.264700  0.356590
0.36628  4.244800  0.343060
0.36791  4.224800  0.330670
0.36955  4.205000  0.320520
0.37121  4.186000  0.310550
0.37289  4.168000  0.298930
0.37458  4.150800  0.286760
0.37628  4.134700  0.275180
0.37800  4.118600  0.263490
0.37974  4.101800  0.251020
0.38149  4.084400  0.238750
0.38326  4.067100  0.227830
0.38505  4.051700  0.217310
0.38685  4.037200  0.206330
0.38867  4.021700  0.194780
0.39050  4.006000  0.181650
0.39236  3.990300  0.167530
0.39423  3.973900  0.154620
0.39612  3.955700  0.143340
0.39803  3.937200  0.132790
0.39995  3.920900  0.122130
0.40190  3.903500  0.111510
0.40386  3.885100  0.101400
0.40584  3.867600  0.091468
0.40785  3.849200  0.081448
0.40987  3.831000  0.071564
0.41191  3.814000  0.062393
0.41397  3.795000  0.053925
0.41606  3.774700  0.046225
0.41816  3.755200  0.040119
0.42029  3.735800  0.035565
0.42244  3.718000  0.031581
0.42461  3.702100  0.026746
0.42680  3.686000  0.020862
0.42901  3.669200  0.015163
0.43125  3.652800  0.009685
0.43351  3.636100  0.004431
0.43580  3.617900  0.000998
0.43811  3.598600  0.000000
0.44044  3.580300  0.000000
0.44280  3.564800  0.000000
0.44519  3.551000  0.000000
0.44760  3.536200  0.000000
0.45004  3.521900  0.000000
0.45250  3.508900  0.000000
0.45499  3.497200  0.000000
0.45751  3.486600  0.000000
0.46006  3.475600  0.000000
0.46263  3.464100  0.000000
0.46524  3.452000  0.000000
0.46787  3.439500  0.000000
0.47053  3.428100  0.000000
0.47323  3.417700  0.000000
0.47595  3.408300  0.000000
0.47871  3.400000  0.000000
0.48150  3.391000  0.000000
0.48432  3.381500  0.000000
0.48717  3.371400  0.000000
0.49006  3.360700  0.000000
0.49298  3.351800  0.000000
0.49594  3.343900  0.000000
0.49893  3.334600  0.000000
0.50196  3.326200  0.000000
0.50503  3.319500  0.000000
0.50814  3.311400  0.000000
0.51128  3.301900  0.000000
0.51446  3.294100  0.000000
0.51768  3.287300  0.000000
0.52095  3.279100  0.000000
0.52425  3.270900  0.000000
0.52760  3.264400  0.000000
0.53099  3.258800  0.000000
0.53442  3.251800  0.000000
0.53790  3.244200  0.000000
0.54142  3.237500  0.000000
0.54499  3.230000  0.000000
0.54861  3.222700  0.000000
0.55227  3.216400  0.000000
0.55599  3.210800  0.000000
0.55975  3.206200  0.000000
0.56357  3.200100  0.000000
0.56744  3.192500  0.000000
0.57136  3.186500  0.000000
0.57534  3.182300  0.000000
0.57937  3.176600  0.000000
0.58346  3.170200  0.000000
0.58761  3.165300  0.000000
0.59181  3.160600  0.000000
0.59608  3.155300  0.000000
0.60041  3.149200  0.000000
0.60481  3.143200  0.000000
0.60926  3.138100  0.000000
0.61379  3.132300  0.000000
0.61838  3.126600  0.000000
0.62304  3.121700  0.000000
0.62777  3.117600  0.000000
0.63258  3.113500  0.000000
0.63746  3.108900  0.000000
0.64241  3.104200  0.000000
0.64744  3.099700  0.000000
0.65255  3.096000  0.000000
0.65775  3.092300  0.000000
0.66302  3.087900  0.000000
0.66838  3.082900  0.000000
0.67383  3.077200  0.000000
0.67937  3.072300  0.000000
0.68500  3.068900  0.000000
0.69073  3.065600  0.000000
0.69655  3.061000  0.000000
0.70247  3.057000  0.000000
0.70849  3.054600  0.000000
0.71461  3.050800  0.000000
0.72084  3.045600  0.000000
0.72719  3.041900  0.000000
0.73364  3.038900  0.000000
0.74021  3.034600  0.000000
0.74690  3.031100  0.000000
0.75371  3.028300  0.000000
0.76065  3.024100  0.000000
0.76771  3.020000  0.000000
0.77491  3.016700  0.000000
0.78224  3.014100  0.000000
0.78971  3.011600  0.000000
0.79733  3.008400  0.000000
0.80510  3.005200  0.000000
0.81302  3.002200  0.000000
0.82109  2.999800  0.000000
0.82933  2.996800  0.000000
0.83774  2.993100  0.000000
0.84632  2.990900  0.000000
0.85507  2.988700  0.000000
0.86401  2.985900  0.000000
0.87314  2.983100  0.000000
0.88246  2.979600  0.000000
0.89198  2.975500  0.000000
0.90171  2.972800  0.000000
0.91166  2.971600  0.000000
0.92182  2.969700  0.000000
0.93222  2.967100  0.000000
0.94285  2.964600  0.000000
0.95373  2.962100  0.000000
0.96487  2.959000  0.000000
0.97626  2.955900  0.000000
0.98793  2.954200  0.000000
