; From SOPRA S.A. http://www.sopra-sa.com/indices.htm
; Filename    Symbol               Range (nm)     Description
; ALAS602T    AlAs                275      987    Aluminum Arsenide (Temp: 602 C)
; lambda/um       n         k
0.27583  3.985100  3.136500
0.27675  4.014900  3.092400
0.27768  4.050800  3.044100
0.27862  4.085200  2.996000
0.27956  4.112400  2.950200
0.28051  4.136600  2.903900
0.28146  4.158700  2.858700
0.28243  4.176100  2.815800
0.28339  4.193600  2.769200
0.28437  4.208600  2.721400
0.28535  4.216600  2.677600
0.28634  4.221800  2.635600
0.28734  4.223500  2.593800
0.28834  4.222400  2.553500
0.28935  4.224000  2.514700
0.29036  4.227800  2.477500
0.29139  4.229000  2.443000
0.29242  4.227400  2.412300
0.29346  4.227100  2.382400
0.29450  4.228100  2.352500
0.29555  4.226900  2.325500
0.29662  4.224400  2.301900
0.29768  4.222100  2.280600
0.29876  4.221400  2.260100
0.29984  4.224200  2.241100
0.30093  4.228000  2.224700
0.30203  4.231000  2.210300
0.30314  4.233700  2.195500
0.30426  4.236900  2.178600
0.30538  4.242600  2.161500
0.30651  4.248600  2.146000
0.30766  4.255500  2.130200
0.30880  4.265100  2.112800
0.30996  4.275100  2.097100
0.31113  4.285500  2.084200
0.31231  4.296700  2.071700
0.31349  4.308100  2.058500
0.31468  4.320800  2.044500
0.31589  4.335800  2.028900
0.31710  4.351800  2.013800
0.31832  4.368500  2.000700
0.31955  4.386200  1.987100
0.32079  4.404700  1.970200
0.32204  4.424700  1.951100
0.32330  4.447000  1.930900
0.32457  4.470600  1.908700
0.32585  4.492500  1.883300
0.32714  4.511400  1.854900
0.32844  4.527700  1.824500
0.32975  4.541600  1.792300
0.33107  4.554500  1.759300
0.33240  4.566600  1.726100
0.33374  4.578500  1.690400
0.33510  4.593900  1.652700
0.33646  4.613000  1.615500
0.33783  4.632900  1.577800
0.33922  4.650800  1.537300
0.34062  4.665700  1.495000
0.34203  4.677900  1.452100
0.34345  4.688700  1.408300
0.34488  4.697900  1.363700
0.34633  4.704400  1.318900
0.34778  4.707700  1.273000
0.34925  4.708500  1.226400
0.35074  4.707200  1.179500
0.35223  4.703300  1.132100
0.35374  4.695600  1.085000
0.35526  4.684600  1.039300
0.35679  4.671400  0.995260
0.35834  4.656900  0.953050
0.35990  4.641500  0.913410
0.36147  4.624600  0.876130
0.36306  4.606200  0.839650
0.36466  4.586800  0.804660
0.36628  4.566500  0.771390
0.36791  4.545200  0.739240
0.36955  4.523000  0.708410
0.37121  4.500700  0.678810
0.37289  4.478800  0.650960
0.37458  4.457000  0.625150
0.37628  4.435400  0.601010
0.37800  4.414100  0.577090
0.37974  4.392900  0.552960
0.38149  4.371700  0.529760
0.38326  4.350600  0.507350
0.38505  4.329300  0.485560
0.38685  4.308000  0.464460
0.38867  4.286700  0.443690
0.39050  4.265900  0.424080
0.39236  4.245400  0.406490
0.39423  4.225000  0.390110
0.39612  4.204900  0.374340
0.39803  4.185000  0.359480
0.39995  4.165600  0.345520
0.40190  4.146400  0.332460
0.40386  4.127400  0.319890
0.40584  4.108700  0.306750
0.40785  4.090500  0.292650
0.40987  4.072900  0.279150
0.41191  4.055800  0.267360
0.41397  4.038900  0.256120
0.41606  4.022600  0.245120
0.41816  4.006800  0.234820
0.42029  3.991300  0.224910
0.42244  3.975500  0.214770
0.42461  3.959500  0.203850
0.42680  3.943400  0.193060
0.42901  3.927900  0.183350
0.43125  3.913500  0.174170
0.43351  3.900500  0.165050
0.43580  3.887500  0.155950
0.43811  3.872100  0.147000
0.44044  3.854900  0.138280
0.44280  3.838100  0.130430
0.44519  3.822400  0.124150
0.44760  3.806500  0.118490
0.45004  3.791400  0.112710
0.45250  3.777200  0.106750
0.45499  3.763400  0.100600
0.45751  3.749900  0.094936
0.46006  3.736000  0.090429
0.46263  3.722600  0.086819
0.46524  3.709900  0.082946
0.46787  3.697200  0.078087
0.47053  3.684900  0.072502
0.47323  3.672400  0.066727
0.47595  3.660100  0.061594
0.47871  3.648800  0.057154
0.48150  3.637200  0.052525
0.48432  3.625000  0.047815
0.48717  3.612100  0.043353
0.49006  3.598500  0.039079
0.49298  3.586000  0.035225
0.49594  3.574200  0.032127
0.49893  3.561900  0.029483
0.50196  3.550500  0.026543
0.50503  3.540300  0.023556
0.50814  3.529300  0.020951
0.51128  3.517500  0.018331
0.51446  3.506900  0.015387
0.51768  3.496800  0.012405
0.52095  3.485300  0.009600
0.52425  3.474000  0.006942
0.52760  3.463600  0.003944
0.53099  3.452900  0.001116
0.53442  3.440700  0.000000
0.53790  3.428800  0.000000
0.54142  3.418500  0.000000
0.54499  3.408100  0.000000
0.54861  3.398200  0.000000
0.55227  3.389100  0.000000
0.55599  3.380800  0.000000
0.55975  3.373400  0.000000
0.56357  3.365100  0.000000
0.56744  3.355800  0.000000
0.57136  3.347900  0.000000
0.57534  3.341300  0.000000
0.57937  3.333700  0.000000
0.58346  3.325800  0.000000
0.58761  3.319100  0.000000
0.59181  3.312600  0.000000
0.59608  3.305800  0.000000
0.60041  3.298400  0.000000
0.60481  3.291200  0.000000
0.60926  3.284700  0.000000
0.61379  3.277800  0.000000
0.61838  3.271000  0.000000
0.62304  3.264800  0.000000
0.62777  3.259300  0.000000
0.63258  3.253900  0.000000
0.63746  3.248200  0.000000
0.64241  3.242500  0.000000
0.64744  3.236900  0.000000
0.65255  3.232000  0.000000
0.65775  3.227100  0.000000
0.66302  3.221700  0.000000
0.66838  3.216000  0.000000
0.67383  3.209700  0.000000
0.67937  3.204100  0.000000
0.68500  3.199800  0.000000
0.69073  3.195500  0.000000
0.69655  3.190100  0.000000
0.70247  3.185300  0.000000
0.70849  3.181800  0.000000
0.71461  3.177200  0.000000
0.72084  3.171600  0.000000
0.72719  3.167200  0.000000
0.73364  3.163500  0.000000
0.74021  3.158600  0.000000
0.74690  3.154500  0.000000
0.75371  3.150900  0.000000
0.76065  3.146300  0.000000
0.76771  3.141700  0.000000
0.77491  3.137800  0.000000
0.78224  3.134500  0.000000
0.78971  3.131200  0.000000
0.79733  3.127500  0.000000
0.80510  3.123800  0.000000
0.81302  3.120200  0.000000
0.82109  3.117100  0.000000
0.82933  3.113600  0.000000
0.83774  3.109600  0.000000
0.84632  3.106700  0.000000
0.85507  3.103900  0.000000
0.86401  3.100600  0.000000
0.87314  3.097400  0.000000
0.88246  3.093700  0.000000
0.89198  3.089400  0.000000
0.90171  3.086300  0.000000
0.91166  3.084400  0.000000
0.92182  3.081900  0.000000
0.93222  3.079000  0.000000
0.94285  3.076100  0.000000
0.95373  3.073200  0.000000
0.96487  3.069900  0.000000
0.97626  3.066600  0.000000
0.98793  3.064400  0.000000
