; From SOPRA S.A. http://www.sopra-sa.com/indices.htm
; Filename    Symbol               Range (nm)     Description
; ALAS390T    AlAs                275      987    Aluminum Arsenide (Temp: 390 C)
; lambda/um       n         k
0.27583  4.259700  2.980000
0.27675  4.260200  2.931100
0.27768  4.264600  2.880700
0.27862  4.272600  2.829000
0.27956  4.281200  2.775900
0.28051  4.291300  2.722000
0.28146  4.302100  2.671100
0.28243  4.309200  2.622700
0.28339  4.312500  2.578400
0.28437  4.310900  2.540400
0.28535  4.302500  2.507300
0.28634  4.288700  2.475700
0.28734  4.275000  2.445300
0.28834  4.266100  2.418300
0.28935  4.262800  2.393900
0.29036  4.262900  2.370000
0.29139  4.261100  2.346800
0.29242  4.255500  2.325200
0.29346  4.250800  2.306500
0.29450  4.248900  2.291900
0.29555  4.247700  2.277900
0.29662  4.245300  2.262900
0.29768  4.243500  2.251000
0.29876  4.246400  2.242200
0.29984  4.253800  2.232800
0.30093  4.263000  2.221600
0.30203  4.272300  2.211100
0.30314  4.282400  2.203100
0.30426  4.294800  2.198100
0.30538  4.311300  2.194500
0.30651  4.330000  2.188300
0.30766  4.348600  2.179500
0.30880  4.369200  2.171200
0.30996  4.392300  2.162600
0.31113  4.416600  2.150600
0.31231  4.442800  2.136100
0.31349  4.471400  2.120100
0.31468  4.502300  2.102000
0.31589  4.534800  2.082400
0.31710  4.567600  2.060000
0.31832  4.598200  2.033600
0.31955  4.627300  2.005000
0.32079  4.657600  1.975600
0.32204  4.690000  1.942400
0.32330  4.725700  1.904200
0.32457  4.762800  1.866300
0.32585  4.795800  1.827800
0.32714  4.821400  1.784900
0.32844  4.840000  1.738700
0.32975  4.851900  1.687900
0.33107  4.858000  1.631500
0.33240  4.861900  1.571600
0.33374  4.866600  1.509300
0.33510  4.873100  1.444200
0.33646  4.881500  1.380000
0.33783  4.887700  1.319500
0.33922  4.888400  1.259200
0.34062  4.883300  1.198000
0.34203  4.873000  1.139000
0.34345  4.858200  1.082600
0.34488  4.839500  1.027900
0.34633  4.817600  0.976020
0.34778  4.793100  0.928510
0.34925  4.766600  0.884770
0.35074  4.739400  0.844020
0.35223  4.711900  0.805120
0.35374  4.684200  0.767740
0.35526  4.655900  0.733200
0.35679  4.627000  0.702180
0.35834  4.598300  0.673480
0.35990  4.570400  0.645350
0.36147  4.543000  0.618750
0.36306  4.515800  0.594920
0.36466  4.489600  0.572540
0.36628  4.464700  0.549760
0.36791  4.440800  0.526300
0.36955  4.417200  0.503980
0.37121  4.393700  0.483950
0.37289  4.370300  0.465770
0.37458  4.347200  0.447900
0.37628  4.324700  0.430030
0.37800  4.302200  0.413830
0.37974  4.280100  0.398500
0.38149  4.258200  0.382690
0.38326  4.236600  0.366320
0.38505  4.216100  0.349870
0.38685  4.196500  0.334740
0.38867  4.176900  0.320850
0.39050  4.157500  0.307920
0.39236  4.138500  0.295160
0.39423  4.119900  0.282030
0.39612  4.101500  0.269170
0.39803  4.083300  0.256240
0.39995  4.065100  0.244370
0.40190  4.046900  0.234260
0.40386  4.028800  0.223790
0.40584  4.010900  0.213340
0.40785  3.993400  0.204120
0.40987  3.977100  0.194460
0.41191  3.962200  0.183410
0.41397  3.947800  0.171970
0.41606  3.932000  0.161080
0.41816  3.914100  0.150270
0.42029  3.895500  0.139400
0.42244  3.879800  0.129270
0.42461  3.866900  0.119890
0.42680  3.851700  0.111180
0.42901  3.834200  0.103210
0.43125  3.817700  0.095964
0.43351  3.802200  0.088943
0.43580  3.786000  0.081912
0.43811  3.768200  0.075885
0.44044  3.750300  0.071177
0.44280  3.735000  0.066826
0.44519  3.721000  0.061781
0.44760  3.705100  0.056495
0.45004  3.689400  0.052810
0.45250  3.676100  0.049718
0.45499  3.664300  0.044677
0.45751  3.652100  0.038685
0.46006  3.638500  0.033740
0.46263  3.624500  0.029675
0.46524  3.610400  0.025586
0.46787  3.595800  0.021290
0.47053  3.581900  0.016907
0.47323  3.568400  0.012266
0.47595  3.554900  0.007489
0.47871  3.541100  0.003275
0.48150  3.526000  0.000713
0.48432  3.510900  0.000000
0.48717  3.496400  0.000000
0.49006  3.482300  0.000000
0.49298  3.470100  0.000000
0.49594  3.459100  0.000000
0.49893  3.447100  0.000000
0.50196  3.436300  0.000000
0.50503  3.427100  0.000000
0.50814  3.416900  0.000000
0.51128  3.405500  0.000000
0.51446  3.395700  0.000000
0.51768  3.386900  0.000000
0.52095  3.377000  0.000000
0.52425  3.367300  0.000000
0.52760  3.359100  0.000000
0.53099  3.351800  0.000000
0.53442  3.343400  0.000000
0.53790  3.334500  0.000000
0.54142  3.326400  0.000000
0.54499  3.317700  0.000000
0.54861  3.309300  0.000000
0.55227  3.301700  0.000000
0.55599  3.294900  0.000000
0.55975  3.288900  0.000000
0.56357  3.281600  0.000000
0.56744  3.273300  0.000000
0.57136  3.266400  0.000000
0.57534  3.260800  0.000000
0.57937  3.254100  0.000000
0.58346  3.246900  0.000000
0.58761  3.241100  0.000000
0.59181  3.235500  0.000000
0.59608  3.229200  0.000000
0.60041  3.222400  0.000000
0.60481  3.215800  0.000000
0.60926  3.209900  0.000000
0.61379  3.203400  0.000000
0.61838  3.197000  0.000000
0.62304  3.191400  0.000000
0.62777  3.186500  0.000000
0.63258  3.181700  0.000000
0.63746  3.176400  0.000000
0.64241  3.171100  0.000000
0.64744  3.165900  0.000000
0.65255  3.161400  0.000000
0.65775  3.157000  0.000000
0.66302  3.152100  0.000000
0.66838  3.146600  0.000000
0.67383  3.140500  0.000000
0.67937  3.135200  0.000000
0.68500  3.131200  0.000000
0.69073  3.127200  0.000000
0.69655  3.122100  0.000000
0.70247  3.117700  0.000000
0.70849  3.114600  0.000000
0.71461  3.110300  0.000000
0.72084  3.104800  0.000000
0.72719  3.100600  0.000000
0.73364  3.097200  0.000000
0.74021  3.092500  0.000000
0.74690  3.088500  0.000000
0.75371  3.085200  0.000000
0.76065  3.080700  0.000000
0.76771  3.076300  0.000000
0.77491  3.072600  0.000000
0.78224  3.069600  0.000000
0.78971  3.066600  0.000000
0.79733  3.063000  0.000000
0.80510  3.059400  0.000000
0.81302  3.056000  0.000000
0.82109  3.053200  0.000000
0.82933  3.049800  0.000000
0.83774  3.045900  0.000000
0.84632  3.043300  0.000000
0.85507  3.040700  0.000000
0.86401  3.037500  0.000000
0.87314  3.034400  0.000000
0.88246  3.030700  0.000000
0.89198  3.026400  0.000000
0.90171  3.023500  0.000000
0.91166  3.021800  0.000000
0.92182  3.019500  0.000000
0.93222  3.016700  0.000000
0.94285  3.013900  0.000000
0.95373  3.011200  0.000000
0.96487  3.007900  0.000000
0.97626  3.004600  0.000000
0.98793  3.002600  0.000000
