; From SOPRA S.A. http://www.sopra-sa.com/indices.htm
; Filename    Symbol               Range (nm)     Description
; ALAS098T    AlAs                275      987    Aluminum Arsenide (Temp: 98 C)
; lambda/um       n         k
0.27583  4.421500  2.611500
0.27675  4.409800  2.559600
0.27768  4.395300  2.511700
0.27862  4.379400  2.471200
0.27956  4.358300  2.439500
0.28051  4.327500  2.414200
0.28146  4.293400  2.392100
0.28243  4.261900  2.371900
0.28339  4.236700  2.353800
0.28437  4.220300  2.339000
0.28535  4.207900  2.328500
0.28634  4.197900  2.321100
0.28734  4.193300  2.314400
0.28834  4.191800  2.309800
0.28935  4.189500  2.308900
0.29036  4.189900  2.310900
0.29139  4.196500  2.315000
0.29242  4.206200  2.320500
0.29346  4.217400  2.326800
0.29450  4.230900  2.333000
0.29555  4.247300  2.339400
0.29662  4.267800  2.347000
0.29768  4.293700  2.355200
0.29876  4.324500  2.362300
0.29984  4.359800  2.366200
0.30093  4.399900  2.365800
0.30203  4.443100  2.361800
0.30314  4.488600  2.354900
0.30426  4.536400  2.344300
0.30538  4.585300  2.328100
0.30651  4.635400  2.305600
0.30766  4.689100  2.278200
0.30880  4.745400  2.246500
0.30996  4.797700  2.211400
0.31113  4.845300  2.172400
0.31231  4.895000  2.126900
0.31349  4.949000  2.075200
0.31468  5.005600  2.019000
0.31589  5.060300  1.959200
0.31710  5.111000  1.894900
0.31832  5.157500  1.821900
0.31955  5.197200  1.739700
0.32079  5.226700  1.653500
0.32204  5.242500  1.566300
0.32330  5.249400  1.469600
0.32457  5.254900  1.357500
0.32585  5.251100  1.246900
0.32714  5.228300  1.151600
0.32844  5.188500  1.071100
0.32975  5.136500  1.003700
0.33107  5.076800  0.948260
0.33240  5.013600  0.903300
0.33374  4.949700  0.868540
0.33510  4.886500  0.840640
0.33646  4.834100  0.806070
0.33783  4.797200  0.760290
0.33922  4.762800  0.717470
0.34062  4.726700  0.681910
0.34203  4.693600  0.649080
0.34345  4.662200  0.619160
0.34488  4.630400  0.593530
0.34633  4.598800  0.570480
0.34778  4.568400  0.547120
0.34925  4.537900  0.525030
0.35074  4.507200  0.505030
0.35223  4.477600  0.485340
0.35374  4.448400  0.466500
0.35526  4.420300  0.449900
0.35679  4.394300  0.435210
0.35834  4.369500  0.421610
0.35990  4.345400  0.409100
0.36147  4.322500  0.397640
0.36306  4.301000  0.386270
0.36466  4.279900  0.374450
0.36628  4.258600  0.362020
0.36791  4.237500  0.349250
0.36955  4.217200  0.337050
0.37121  4.198000  0.325080
0.37289  4.179800  0.312290
0.37458  4.161700  0.298110
0.37628  4.143900  0.283170
0.37800  4.126900  0.269170
0.37974  4.109900  0.255780
0.38149  4.094200  0.242560
0.38326  4.079500  0.230620
0.38505  4.064200  0.219680
0.38685  4.048200  0.209010
0.38867  4.031400  0.198120
0.39050  4.014900  0.186000
0.39236  3.999100  0.172740
0.39423  3.982700  0.160130
0.39612  3.964400  0.149180
0.39803  3.945700  0.138970
0.39995  3.929200  0.128780
0.40190  3.911800  0.118740
0.40386  3.893500  0.109040
0.40584  3.876300  0.099615
0.40785  3.858300  0.090045
0.40987  3.840900  0.080385
0.41191  3.824500  0.070893
0.41397  3.805700  0.061946
0.41606  3.785600  0.054228
0.41816  3.766200  0.047991
0.42029  3.746900  0.043170
0.42244  3.728700  0.039063
0.42461  3.712400  0.034793
0.42680  3.696700  0.030212
0.42901  3.681200  0.025286
0.43125  3.666400  0.020041
0.43351  3.652100  0.014871
0.43580  3.636700  0.009886
0.43811  3.618900  0.004946
0.44044  3.599100  0.001243
0.44280  3.581400  0.000000
0.44519  3.565900  0.000000
0.44760  3.550200  0.000000
0.45004  3.535200  0.000000
0.45250  3.521700  0.000000
0.45499  3.509500  0.000000
0.45751  3.498600  0.000000
0.46006  3.487200  0.000000
0.46263  3.475400  0.000000
0.46524  3.463200  0.000000
0.46787  3.450400  0.000000
0.47053  3.438700  0.000000
0.47323  3.428100  0.000000
0.47595  3.418600  0.000000
0.47871  3.410100  0.000000
0.48150  3.401100  0.000000
0.48432  3.391500  0.000000
0.48717  3.381300  0.000000
0.49006  3.370400  0.000000
0.49298  3.361400  0.000000
0.49594  3.353400  0.000000
0.49893  3.343900  0.000000
0.50196  3.335400  0.000000
0.50503  3.328600  0.000000
0.50814  3.320500  0.000000
0.51128  3.310900  0.000000
0.51446  3.303100  0.000000
0.51768  3.296100  0.000000
0.52095  3.287800  0.000000
0.52425  3.279600  0.000000
0.52760  3.273100  0.000000
0.53099  3.267500  0.000000
0.53442  3.260500  0.000000
0.53790  3.252800  0.000000
0.54142  3.246000  0.000000
0.54499  3.238500  0.000000
0.54861  3.231100  0.000000
0.55227  3.224700  0.000000
0.55599  3.219200  0.000000
0.55975  3.214500  0.000000
0.56357  3.208300  0.000000
0.56744  3.200600  0.000000
0.57136  3.194700  0.000000
0.57534  3.190500  0.000000
0.57937  3.184800  0.000000
0.58346  3.178300  0.000000
0.58761  3.173500  0.000000
0.59181  3.168800  0.000000
0.59608  3.163400  0.000000
0.60041  3.157300  0.000000
0.60481  3.151300  0.000000
0.60926  3.146200  0.000000
0.61379  3.140300  0.000000
0.61838  3.134500  0.000000
0.62304  3.129600  0.000000
0.62777  3.125500  0.000000
0.63258  3.121600  0.000000
0.63746  3.116800  0.000000
0.64241  3.112200  0.000000
0.64744  3.107700  0.000000
0.65255  3.104000  0.000000
0.65775  3.100300  0.000000
0.66302  3.095900  0.000000
0.66838  3.090900  0.000000
0.67383  3.085100  0.000000
0.67937  3.080100  0.000000
0.68500  3.076800  0.000000
0.69073  3.073500  0.000000
0.69655  3.068700  0.000000
0.70247  3.064800  0.000000
0.70849  3.062400  0.000000
0.71461  3.058700  0.000000
0.72084  3.053400  0.000000
0.72719  3.049700  0.000000
0.73364  3.046800  0.000000
0.74021  3.042400  0.000000
0.74690  3.038900  0.000000
0.75371  3.036100  0.000000
0.76065  3.031900  0.000000
0.76771  3.027800  0.000000
0.77491  3.024500  0.000000
0.78224  3.022000  0.000000
0.78971  3.019400  0.000000
0.79733  3.016200  0.000000
0.80510  3.013100  0.000000
0.81302  3.010000  0.000000
0.82109  3.007700  0.000000
0.82933  3.004700  0.000000
0.83774  3.000900  0.000000
0.84632  2.998700  0.000000
0.85507  2.996600  0.000000
0.86401  2.993800  0.000000
0.87314  2.991000  0.000000
0.88246  2.987500  0.000000
0.89198  2.983200  0.000000
0.90171  2.980600  0.000000
0.91166  2.979400  0.000000
0.92182  2.977600  0.000000
0.93222  2.975000  0.000000
0.94285  2.972500  0.000000
0.95373  2.970100  0.000000
0.96487  2.966900  0.000000
0.97626  2.963800  0.000000
0.98793  2.962200  0.000000
