; From SOPRA S.A. http://www.sopra-sa.com/indices.htm
; Filename    Symbol               Range (nm)     Description
; ALAS331T    AlAs                275      987    Aluminum Arsenide (Temp: 331 C)
; lambda/um       n         k
0.27583  4.339500  2.877100
0.27675  4.353100  2.824000
0.27768  4.354500  2.776900
0.27862  4.349900  2.732100
0.27956  4.345600  2.686500
0.28051  4.340400  2.644200
0.28146  4.332800  2.606400
0.28243  4.322700  2.569500
0.28339  4.312100  2.531600
0.28437  4.302300  2.494300
0.28535  4.290600  2.460500
0.28634  4.277600  2.429600
0.28734  4.266100  2.401200
0.28834  4.255700  2.374800
0.28935  4.247200  2.350900
0.29036  4.241300  2.332400
0.29139  4.237900  2.319800
0.29242  4.236400  2.312300
0.29346  4.235000  2.305800
0.29450  4.233300  2.299100
0.29555  4.231400  2.295100
0.29662  4.232600  2.289400
0.29768  4.240200  2.278500
0.29876  4.250200  2.265500
0.29984  4.260900  2.253500
0.30093  4.274700  2.243400
0.30203  4.291200  2.234900
0.30314  4.309000  2.226900
0.30426  4.326300  2.219900
0.30538  4.343800  2.213400
0.30651  4.364000  2.206000
0.30766  4.388000  2.197600
0.30880  4.414900  2.189400
0.30996  4.443400  2.180600
0.31113  4.474500  2.169000
0.31231  4.507500  2.154200
0.31349  4.539600  2.135700
0.31468  4.573500  2.114200
0.31589  4.611400  2.091300
0.31710  4.651400  2.065000
0.31832  4.691500  2.033900
0.31955  4.730300  1.999400
0.32079  4.766800  1.963300
0.32204  4.800600  1.923200
0.32330  4.835100  1.876400
0.32457  4.869500  1.826200
0.32585  4.897300  1.773700
0.32714  4.919600  1.718300
0.32844  4.937300  1.661400
0.32975  4.947300  1.602000
0.33107  4.950300  1.539600
0.33240  4.949700  1.475200
0.33374  4.945400  1.409300
0.33510  4.937600  1.341800
0.33646  4.932500  1.274400
0.33783  4.929000  1.209800
0.33922  4.919100  1.147600
0.34062  4.903100  1.087400
0.34203  4.883000  1.030400
0.34345  4.858600  0.976330
0.34488  4.831000  0.926230
0.34633  4.801400  0.880320
0.34778  4.770300  0.836420
0.34925  4.738700  0.794980
0.35074  4.708200  0.758040
0.35223  4.678800  0.724090
0.35374  4.649000  0.691880
0.35526  4.619400  0.661740
0.35679  4.590800  0.633530
0.35834  4.562400  0.607570
0.35990  4.534100  0.583680
0.36147  4.506100  0.561550
0.36306  4.479200  0.540520
0.36466  4.453500  0.520440
0.36628  4.428000  0.502470
0.36791  4.403100  0.486050
0.36955  4.378700  0.468790
0.37121  4.355100  0.449290
0.37289  4.332700  0.428650
0.37458  4.310600  0.408020
0.37628  4.288700  0.388010
0.37800  4.267100  0.370160
0.37974  4.245800  0.355060
0.38149  4.224400  0.341940
0.38326  4.203200  0.330330
0.38505  4.182400  0.320020
0.38685  4.162200  0.309480
0.38867  4.143100  0.297080
0.39050  4.124900  0.283290
0.39236  4.107100  0.269760
0.39423  4.089600  0.257740
0.39612  4.072100  0.246490
0.39803  4.055900  0.235440
0.39995  4.041200  0.225110
0.40190  4.024900  0.214450
0.40386  4.006900  0.203540
0.40584  3.989900  0.194120
0.40785  3.973600  0.184990
0.40987  3.958600  0.174290
0.41191  3.944300  0.162810
0.41397  3.927600  0.152070
0.41606  3.910300  0.141890
0.41816  3.893500  0.131590
0.42029  3.875300  0.121900
0.42244  3.857100  0.113180
0.42461  3.840000  0.105050
0.42680  3.823300  0.097329
0.42901  3.806900  0.089663
0.43125  3.791200  0.081980
0.43351  3.775800  0.074708
0.43580  3.759500  0.068213
0.43811  3.742000  0.062857
0.44044  3.724600  0.058263
0.44280  3.709800  0.053383
0.44519  3.695600  0.047701
0.44760  3.679500  0.042700
0.45004  3.664100  0.038994
0.45250  3.650300  0.034282
0.45499  3.636500  0.028794
0.45751  3.622800  0.024495
0.46006  3.609100  0.021377
0.46263  3.595800  0.018004
0.46524  3.581700  0.013518
0.46787  3.566100  0.008859
0.47053  3.550400  0.004478
0.47323  3.534500  0.001143
0.47595  3.519500  0.000000
0.47871  3.506600  0.000000
0.48150  3.494000  0.000000
0.48432  3.481400  0.000000
0.48717  3.468600  0.000000
0.49006  3.455500  0.000000
0.49298  3.444300  0.000000
0.49594  3.434100  0.000000
0.49893  3.422800  0.000000
0.50196  3.412500  0.000000
0.50503  3.403900  0.000000
0.50814  3.394100  0.000000
0.51128  3.383100  0.000000
0.51446  3.373800  0.000000
0.51768  3.365400  0.000000
0.52095  3.355800  0.000000
0.52425  3.346300  0.000000
0.52760  3.338600  0.000000
0.53099  3.331700  0.000000
0.53442  3.323500  0.000000
0.53790  3.314800  0.000000
0.54142  3.306900  0.000000
0.54499  3.298400  0.000000
0.54861  3.290100  0.000000
0.55227  3.282700  0.000000
0.55599  3.276200  0.000000
0.55975  3.270500  0.000000
0.56357  3.263500  0.000000
0.56744  3.255200  0.000000
0.57136  3.248400  0.000000
0.57534  3.243200  0.000000
0.57937  3.236700  0.000000
0.58346  3.229600  0.000000
0.58761  3.223900  0.000000
0.59181  3.218400  0.000000
0.59608  3.212300  0.000000
0.60041  3.205700  0.000000
0.60481  3.199100  0.000000
0.60926  3.193300  0.000000
0.61379  3.186800  0.000000
0.61838  3.180400  0.000000
0.62304  3.174900  0.000000
0.62777  3.170200  0.000000
0.63258  3.165600  0.000000
0.63746  3.160400  0.000000
0.64241  3.155200  0.000000
0.64744  3.150100  0.000000
0.65255  3.145800  0.000000
0.65775  3.141600  0.000000
0.66302  3.136700  0.000000
0.66838  3.131200  0.000000
0.67383  3.125100  0.000000
0.67937  3.119700  0.000000
0.68500  3.115800  0.000000
0.69073  3.112100  0.000000
0.69655  3.107000  0.000000
0.70247  3.102600  0.000000
0.70849  3.099700  0.000000
0.71461  3.095400  0.000000
0.72084  3.089900  0.000000
0.72719  3.085800  0.000000
0.73364  3.082400  0.000000
0.74021  3.077700  0.000000
0.74690  3.073800  0.000000
0.75371  3.070700  0.000000
0.76065  3.066200  0.000000
0.76771  3.061700  0.000000
0.77491  3.058000  0.000000
0.78224  3.055100  0.000000
0.78971  3.052200  0.000000
0.79733  3.048700  0.000000
0.80510  3.045200  0.000000
0.81302  3.041800  0.000000
0.82109  3.039100  0.000000
0.82933  3.035700  0.000000
0.83774  3.031800  0.000000
0.84632  3.029300  0.000000
0.85507  3.026800  0.000000
0.86401  3.023700  0.000000
0.87314  3.020600  0.000000
0.88246  3.016800  0.000000
0.89198  3.012500  0.000000
0.90171  3.009600  0.000000
0.91166  3.008000  0.000000
0.92182  3.005900  0.000000
0.93222  3.003100  0.000000
0.94285  3.000300  0.000000
0.95373  2.997600  0.000000
0.96487  2.994300  0.000000
0.97626  2.991000  0.000000
0.98793  2.989000  0.000000
