; From SOPRA S.A. http://www.sopra-sa.com/indices.htm
; Filename    Symbol               Range (nm)     Description
; ALAS552T    AlAs                275      987    Aluminum Arsenide (Temp: 552 C)
; lambda/um       n         k
0.27583  4.111600  3.095700
0.27675  4.138400  3.046400
0.27768  4.160800  2.999400
0.27862  4.178700  2.954000
0.27956  4.191900  2.910000
0.28051  4.201500  2.866100
0.28146  4.210000  2.819000
0.28243  4.219800  2.768100
0.28339  4.228800  2.716200
0.28437  4.234000  2.667200
0.28535  4.238400  2.621100
0.28634  4.243500  2.578000
0.28734  4.247100  2.539200
0.28834  4.247000  2.502900
0.28935  4.242100  2.467100
0.29036  4.237200  2.432700
0.29139  4.237100  2.403900
0.29242  4.237600  2.379800
0.29346  4.234000  2.357800
0.29450  4.228500  2.337600
0.29555  4.226400  2.317800
0.29662  4.229400  2.297700
0.29768  4.233900  2.278700
0.29876  4.235700  2.261000
0.29984  4.236700  2.243900
0.30093  4.241700  2.228100
0.30203  4.248100  2.212300
0.30314  4.250800  2.194800
0.30426  4.252300  2.178200
0.30538  4.256900  2.165100
0.30651  4.263900  2.154200
0.30766  4.271900  2.143500
0.30880  4.280800  2.131300
0.30996  4.290300  2.118100
0.31113  4.301700  2.105100
0.31231  4.315800  2.093500
0.31349  4.331500  2.081400
0.31468  4.347000  2.067200
0.31589  4.364700  2.052500
0.31710  4.386000  2.037800
0.31832  4.407400  2.022900
0.31955  4.428000  2.008100
0.32079  4.449900  1.991900
0.32204  4.473400  1.971800
0.32330  4.499300  1.949500
0.32457  4.527000  1.926500
0.32585  4.551700  1.899900
0.32714  4.571400  1.867800
0.32844  4.588800  1.832000
0.32975  4.604400  1.793500
0.33107  4.618400  1.753800
0.33240  4.632600  1.714800
0.33374  4.647400  1.674400
0.33510  4.663300  1.631700
0.33646  4.681500  1.589100
0.33783  4.700800  1.546600
0.33922  4.717300  1.502400
0.34062  4.729800  1.457200
0.34203  4.739300  1.410900
0.34345  4.745900  1.363300
0.34488  4.749200  1.315200
0.34633  4.750400  1.266900
0.34778  4.749800  1.217600
0.34925  4.746200  1.167600
0.35074  4.739800  1.118700
0.35223  4.730400  1.071200
0.35374  4.718500  1.024200
0.35526  4.704900  0.978050
0.35679  4.689400  0.933530
0.35834  4.671600  0.891230
0.35990  4.651800  0.851520
0.36147  4.631100  0.814310
0.36306  4.610200  0.779580
0.36466  4.588000  0.747030
0.36628  4.564200  0.716440
0.36791  4.539200  0.687800
0.36955  4.515100  0.660190
0.37121  4.492700  0.632800
0.37289  4.470800  0.606280
0.37458  4.448500  0.581410
0.37628  4.426200  0.557990
0.37800  4.404100  0.535520
0.37974  4.381600  0.513910
0.38149  4.358600  0.493140
0.38326  4.335800  0.472870
0.38505  4.313400  0.453340
0.38685  4.291700  0.434430
0.38867  4.270800  0.415650
0.39050  4.250400  0.397720
0.39236  4.230300  0.381040
0.39423  4.210700  0.365220
0.39612  4.191000  0.349780
0.39803  4.171000  0.334760
0.39995  4.151100  0.321140
0.40190  4.131800  0.308310
0.40386  4.112900  0.295480
0.40584  4.094500  0.283210
0.40785  4.076300  0.271670
0.40987  4.058700  0.260650
0.41191  4.041900  0.249910
0.41397  4.025800  0.239470
0.41606  4.009800  0.229800
0.41816  3.994200  0.220890
0.42029  3.978600  0.211880
0.42244  3.962400  0.201990
0.42461  3.945500  0.191480
0.42680  3.928900  0.181610
0.42901  3.913800  0.173250
0.43125  3.900800  0.165600
0.43351  3.888400  0.157780
0.43580  3.874900  0.149660
0.43811  3.859400  0.141660
0.44044  3.842700  0.134180
0.44280  3.827300  0.127420
0.44519  3.812900  0.121560
0.44760  3.798100  0.116350
0.45004  3.784300  0.111050
0.45250  3.771500  0.105200
0.45499  3.759100  0.099082
0.45751  3.747300  0.093418
0.46006  3.735200  0.088484
0.46263  3.723700  0.083551
0.46524  3.712200  0.077578
0.46787  3.699600  0.070387
0.47053  3.686400  0.062835
0.47323  3.672700  0.055932
0.47595  3.659500  0.050543
0.47871  3.647600  0.046054
0.48150  3.635800  0.041066
0.48432  3.623000  0.035834
0.48717  3.609100  0.031079
0.49006  3.594700  0.027159
0.49298  3.582100  0.023773
0.49594  3.570600  0.020212
0.49893  3.557800  0.016639
0.50196  3.545700  0.013186
0.50503  3.534900  0.009753
0.50814  3.522600  0.006192
0.51128  3.508300  0.002720
0.51446  3.494700  0.000558
0.51768  3.482200  0.000000
0.52095  3.469700  0.000000
0.52425  3.457900  0.000000
0.52760  3.447800  0.000000
0.53099  3.438800  0.000000
0.53442  3.429000  0.000000
0.53790  3.418800  0.000000
0.54142  3.409500  0.000000
0.54499  3.399900  0.000000
0.54861  3.390500  0.000000
0.55227  3.382000  0.000000
0.55599  3.374300  0.000000
0.55975  3.367400  0.000000
0.56357  3.359500  0.000000
0.56744  3.350500  0.000000
0.57136  3.342900  0.000000
0.57534  3.336700  0.000000
0.57937  3.329400  0.000000
0.58346  3.321700  0.000000
0.58761  3.315300  0.000000
0.59181  3.309100  0.000000
0.59608  3.302400  0.000000
0.60041  3.295200  0.000000
0.60481  3.288200  0.000000
0.60926  3.281800  0.000000
0.61379  3.275000  0.000000
0.61838  3.268300  0.000000
0.62304  3.262400  0.000000
0.62777  3.257100  0.000000
0.63258  3.251800  0.000000
0.63746  3.246200  0.000000
0.64241  3.240600  0.000000
0.64744  3.235100  0.000000
0.65255  3.230400  0.000000
0.65775  3.225700  0.000000
0.66302  3.220600  0.000000
0.66838  3.214800  0.000000
0.67383  3.208600  0.000000
0.67937  3.203000  0.000000
0.68500  3.198800  0.000000
0.69073  3.194600  0.000000
0.69655  3.189300  0.000000
0.70247  3.184700  0.000000
0.70849  3.181300  0.000000
0.71461  3.176900  0.000000
0.72084  3.171300  0.000000
0.72719  3.167000  0.000000
0.73364  3.163300  0.000000
0.74021  3.158500  0.000000
0.74690  3.154400  0.000000
0.75371  3.150900  0.000000
0.76065  3.146300  0.000000
0.76771  3.141800  0.000000
0.77491  3.137900  0.000000
0.78224  3.134700  0.000000
0.78971  3.131600  0.000000
0.79733  3.127900  0.000000
0.80510  3.124200  0.000000
0.81302  3.120700  0.000000
0.82109  3.117700  0.000000
0.82933  3.114300  0.000000
0.83774  3.110300  0.000000
0.84632  3.107500  0.000000
0.85507  3.104800  0.000000
0.86401  3.101600  0.000000
0.87314  3.098400  0.000000
0.88246  3.094700  0.000000
0.89198  3.090400  0.000000
0.90171  3.087400  0.000000
0.91166  3.085600  0.000000
0.92182  3.083200  0.000000
0.93222  3.080300  0.000000
0.94285  3.077400  0.000000
0.95373  3.074600  0.000000
0.96487  3.071200  0.000000
0.97626  3.068000  0.000000
0.98793  3.065900  0.000000
