; From SOPRA S.A. http://www.sopra-sa.com/indices.htm
; Filename    Symbol               Range (nm)     Description
; ALCU        AlCu                250      900    Aluminum Copper
; lambda/um       n         k
0.25000  0.156487  2.295574
0.25500  0.163833  2.313968
0.26000  0.169489  2.359777
0.26500  0.173898  2.421387
0.27000  0.177503  2.487185
0.27500  0.180418  2.537015
0.28000  0.184080  2.584888
0.28500  0.190636  2.639921
0.29000  0.198064  2.696640
0.29500  0.205186  2.752498
0.30000  0.211614  2.807837
0.30500  0.215789  2.861916
0.31000  0.220042  2.915433
0.31500  0.226470  2.968448
0.32000  0.234219  3.022130
0.32500  0.244185  3.078488
0.33000  0.253210  3.135056
0.33500  0.256589  3.189678
0.34000  0.259859  3.243432
0.34500  0.268986  3.296397
0.35000  0.277974  3.349415
0.35500  0.280220  3.404014
0.36000  0.283517  3.458216
0.36500  0.296547  3.509495
0.37000  0.310043  3.561027
0.37500  0.315274  3.616131
0.38000  0.319313  3.671854
0.38500  0.326216  3.726072
0.39000  0.336304  3.779620
0.39500  0.354278  3.832130
0.40000  0.371052  3.885093
0.40500  0.376196  3.939565
0.41000  0.378449  3.996480
0.41500  0.382388  4.059748
0.42000  0.390067  4.121498
0.42500  0.408473  4.171356
0.43000  0.427392  4.220753
0.43500  0.435067  4.281133
0.44000  0.443120  4.342093
0.44500  0.463485  4.396205
0.45000  0.483467  4.445996
0.45500  0.490653  4.488146
0.46000  0.496135  4.532772
0.46500  0.508856  4.594168
0.47000  0.522849  4.656487
0.47500  0.534813  4.704552
0.48000  0.545698  4.750657
0.48500  0.553639  4.803677
0.49000  0.563789  4.858696
0.49500  0.583779  4.913237
0.50000  0.604313  4.968865
0.50500  0.616020  5.028700
0.51000  0.626753  5.085599
0.51500  0.643463  5.130123
0.52000  0.659483  5.172270
0.52500  0.668710  5.221686
0.53000  0.676407  5.269992
0.53500  0.685166  5.309886
0.54000  0.696897  5.347780
0.54500  0.715984  5.387094
0.55000  0.737600  5.429519
0.55500  0.758894  5.480131
0.56000  0.778321  5.532201
0.56500  0.791122  5.578501
0.57000  0.804088  5.625605
0.57500  0.824633  5.678329
0.58000  0.846129  5.734722
0.58500  0.863396  5.796947
0.59000  0.879501  5.857492
0.59500  0.896496  5.908688
0.60000  0.912249  5.953170
0.60500  0.922501  5.989237
0.61000  0.935688  6.022240
0.61500  0.961408  6.055367
0.62000  0.991916  6.093397
0.62500  1.024190  6.147973
0.63000  1.053656  6.201692
0.63500  1.070788  6.235268
0.64000  1.087422  6.265997
0.64500  1.116477  6.307863
0.65000  1.145172  6.351516
0.65500  1.162157  6.391303
0.66000  1.176053  6.430112
0.66500  1.189321  6.469171
0.67000  1.209095  6.507810
0.67500  1.248713  6.545737
0.68000  1.292017  6.583038
0.68500  1.325103  6.619649
0.69000  1.354554  6.655720
0.69500  1.382236  6.690845
0.70000  1.408404  6.726626
0.70500  1.432585  6.766716
0.71000  1.458822  6.804561
0.71500  1.492139  6.833510
0.72000  1.529111  6.857500
0.72500  1.569096  6.876251
0.73000  1.608771  6.895767
0.73500  1.642775  6.924725
0.74000  1.676585  6.954820
0.74500  1.714285  6.980029
0.75000  1.754690  7.002186
0.75500  1.801329  7.021618
0.76000  1.844143  7.036818
0.76500  1.868354  7.045407
0.77000  1.891647  7.050321
0.77500  1.931045  7.054325
0.78000  1.973760  7.055557
0.78500  2.011793  7.053227
0.79000  2.047796  7.046875
0.79500  2.082997  7.035734
0.80000  2.113673  7.019930
0.80500  2.136357  6.996832
0.81000  2.151510  6.973940
0.81500  2.157922  6.963675
0.82000  2.157147  6.948639
0.82500  2.151296  6.909702
0.83000  2.137493  6.864470
0.83500  2.112098  6.826813
0.84000  2.079508  6.788807
0.84500  2.044940  6.741091
0.85000  2.002293  6.701838
0.85500  1.942751  6.693566
0.86000  1.879684  6.693874
0.86500  1.825320  6.680408
0.87000  1.774271  6.675537
0.87500  1.725275  6.709201
0.88000  1.678188  6.736331
0.88500  1.641538  6.712652
0.89000  1.588052  6.665723
0.89500  1.499407  6.605146
0.90000  1.357281  6.540522
