; From SOPRA S.A. http://www.sopra-sa.com/indices.htm
; Filename    Symbol               Range (nm)     Description
; ALSB        AlSb                213     2479    Aluminum Antimonide
; lambda/um       n         k
0.21377  1.000000  2.400000
0.21563  1.002500  2.407500
0.21752  1.010000  2.420000
0.21944  1.022500  2.437500
0.22140  1.040000  2.460000
0.22340  1.061875  2.488750
0.22543  1.090000  2.520000
0.22750  1.127500  2.553125
0.22960  1.170000  2.580000
0.23175  1.216875  2.589375
0.23393  1.260000  2.590000
0.23616  1.290625  2.585000
0.23843  1.310000  2.580000
0.24075  1.313750  2.581250
0.24311  1.310000  2.590000
0.24552  1.305625  2.610625
0.24797  1.300000  2.640000
0.25048  1.293750  2.675625
0.25303  1.290000  2.720000
0.25564  1.292500  2.775625
0.25830  1.300000  2.840000
0.26102  1.312500  2.911875
0.26380  1.330000  2.990000
0.26663  1.352500  3.069999
0.26953  1.380000  3.160000
0.27249  1.409375  3.266250
0.27552  1.450000  3.390000
0.27862  1.501250  3.536251
0.28178  1.590000  3.700000
0.28502  1.743751  3.895001
0.28834  1.960000  4.070000
0.29173  2.268750  4.181876
0.29520  2.600000  4.220000
0.29876  2.893123  4.137500
0.30240  3.150000  4.000000
0.30614  3.346249  3.860626
0.30996  3.500000  3.710000
0.31389  3.620625  3.551875
0.31791  3.710000  3.400000
0.32204  3.765625  3.272500
0.32628  3.810000  3.160000
0.33063  3.874375  3.060000
0.33510  3.930000  2.970000
0.33969  3.953125  2.885625
0.34440  3.960000  2.810000
0.34925  3.955625  2.743125
0.35424  3.950000  2.690000
0.35938  3.948750  2.654375
0.36466  3.970000  2.640000
0.37011  4.033125  2.675625
0.37571  4.140000  2.690000
0.38149  4.331875  2.605000
0.38745  4.510000  2.470000
0.39360  4.566250  2.290625
0.39995  4.570000  2.120000
0.40651  4.540000  2.017500
0.41328  4.520000  1.970000
0.42029  4.548750  2.035625
0.42754  4.660000  2.060000
0.43504  4.985626  1.866874
0.44280  5.270000  1.580000
0.45086  5.230000  1.238125
0.45920  5.080000  0.920000
0.46787  4.945625  0.744375
0.47687  4.810000  0.630000
0.48622  4.703750  0.535000
0.49594  4.610000  0.460000
0.50606  4.520625  0.390000
0.51660  4.440000  0.330000
0.52760  4.371250  0.291250
0.53907  4.310000  0.240000
0.55105  4.258749  0.119625
0.56357  4.200000  0.010000
0.57668  4.104775  -0.006250
0.59041  4.010000  0.006000
0.60481  3.950506  0.004813
0.61993  3.903600  0.004000
0.63582  3.857300  0.003438
0.65255  3.814300  0.003000
0.67019  3.773200  0.002500
0.68881  3.734300  0.002000
0.70849  3.697456  0.001481
0.72932  3.662600  0.001000
0.75143  3.629650  0.000594
0.77491  3.598500  0.000300
0.79990  3.569037  0.000213
0.82657  3.541200  0.000200
0.85507  3.514906  0.000150
0.88561  3.490100  0.000100
0.91841  3.466725  0.000044
0.95373  3.444700  0.000000
0.99188  3.423944  0.000006
1.03321  3.404400  0.000000
1.07813  3.385994  0.000000
1.12714  3.368700  0.000000
1.18081  3.352481  0.000000
1.23985  3.337300  0.000000
1.30511  3.323131  0.000000
1.37761  3.309900  0.000000
1.45865  3.297525  0.000000
1.54981  3.286000  0.000000
1.65314  3.275312  0.000000
1.77122  3.265400  0.000000
1.90746  3.256200  0.000000
2.06642  3.247700  0.000000
2.25428  3.239875  0.000000
2.47970  3.232700  0.000000
