; From SOPRA S.A. http://www.sopra-sa.com/indices.htm
; Filename    Symbol               Range (nm)     Description
; ALSITI      AlSiTi              250      800    Aluminum Silicon Titanium
; lambda/um       n         k
0.25000  0.199391  2.147232
0.25500  0.207117  2.201599
0.26000  0.214793  2.255790
0.26500  0.222379  2.309652
0.27000  0.229853  2.363075
0.27500  0.237213  2.415993
0.28000  0.244478  2.468392
0.28500  0.251680  2.520297
0.29000  0.258859  2.571754
0.29500  0.266059  2.622820
0.30000  0.273323  2.673544
0.30500  0.280690  2.723962
0.31000  0.288198  2.774096
0.31500  0.295881  2.823957
0.32000  0.303767  2.873550
0.32500  0.311881  2.922886
0.33000  0.320241  2.971986
0.33500  0.328853  3.020882
0.34000  0.337714  3.069618
0.34500  0.346806  3.118241
0.35000  0.356098  3.166794
0.35500  0.365552  3.215307
0.36000  0.375124  3.263795
0.36500  0.384779  3.312253
0.37000  0.394495  3.360662
0.37500  0.404273  3.408990
0.38000  0.414136  3.457197
0.38500  0.424126  3.505249
0.39000  0.434297  3.553113
0.39500  0.444694  3.600774
0.40000  0.455344  3.648229
0.40500  0.466246  3.695487
0.41000  0.477371  3.742567
0.41500  0.488663  3.789487
0.42000  0.500063  3.836258
0.42500  0.511510  3.882877
0.43000  0.522967  3.929324
0.43500  0.534416  3.975567
0.44000  0.545865  4.021563
0.44500  0.557341  4.067272
0.45000  0.568880  4.112667
0.45500  0.580520  4.157738
0.46000  0.592296  4.202504
0.46500  0.604236  4.247014
0.47000  0.616357  4.291345
0.47500  0.628663  4.335599
0.48000  0.641146  4.379888
0.48500  0.653781  4.424320
0.49000  0.666531  4.468986
0.49500  0.679358  4.513943
0.50000  0.692228  4.559206
0.50500  0.705124  4.604743
0.51000  0.718057  4.650470
0.51500  0.731066  4.696270
0.52000  0.744218  4.741996
0.52500  0.757590  4.787501
0.53000  0.771263  4.832657
0.53500  0.785297  4.877376
0.54000  0.799732  4.921617
0.54500  0.814579  4.965394
0.55000  0.829825  5.008762
0.55500  0.845443  5.051797
0.56000  0.861401  5.094578
0.56500  0.877663  5.137167
0.57000  0.894195  5.179592
0.57500  0.910959  5.221845
0.58000  0.927918  5.263884
0.58500  0.945035  5.305641
0.59000  0.962282  5.347032
0.59500  0.979646  5.387985
0.60000  0.997137  5.428451
0.60500  1.014789  5.468426
0.61000  1.032657  5.507951
0.61500  1.050804  5.547106
0.62000  1.069298  5.585985
0.62500  1.088193  5.624676
0.63000  1.107527  5.663233
0.63500  1.127319  5.701663
0.64000  1.147566  5.739931
0.64500  1.168255  5.777967
0.65000  1.189358  5.815693
0.65500  1.210847  5.853025
0.66000  1.232699  5.889885
0.66500  1.254902  5.926202
0.67000  1.277459  5.961903
0.67500  1.300390  5.996912
0.68000  1.323727  6.031155
0.68500  1.347510  6.064575
0.69000  1.371774  6.097137
0.69500  1.396542  6.128841
0.70000  1.421819  6.159712
0.70500  1.447588  6.189781
0.71000  1.473816  6.219061
0.71500  1.500460  6.247518
0.72000  1.527471  6.275052
0.72500  1.554804  6.301501
0.73000  1.582418  6.326647
0.73500  1.610266  6.350242
0.74000  1.638293  6.372032
0.74500  1.666425  6.391783
0.75000  1.694567  6.409296
0.75500  1.722612  6.424421
0.76000  1.750450  6.437071
0.76500  1.777992  6.447233
0.77000  1.805180  6.454969
0.77500  1.831999  6.460430
0.78000  1.858473  6.463853
0.78500  1.884657  6.465551
0.79000  1.910623  6.465900
0.79500  1.936447  6.465326
0.80000  1.962200  6.464282
