; From SOPRA S.A. http://www.sopra-sa.com/indices.htm
; Filename    Symbol               Range (nm)     Description
; ALSI        AlSi                250      800    Aluminum Silicon
; lambda/um       n         k
0.25000  0.169016  2.142445
0.25500  0.178619  2.195379
0.26000  0.188004  2.248202
0.26500  0.196991  2.300824
0.27000  0.205466  2.353186
0.27500  0.213396  2.405270
0.28000  0.220824  2.457090
0.28500  0.227853  2.508682
0.29000  0.234620  2.560087
0.29500  0.241270  2.611346
0.30000  0.247937  2.662488
0.30500  0.254727  2.713526
0.31000  0.261713  2.764464
0.31500  0.268934  2.815296
0.32000  0.276397  2.866014
0.32500  0.284087  2.916609
0.33000  0.291973  2.967079
0.33500  0.300017  3.017433
0.34000  0.308181  3.067688
0.34500  0.316434  3.117868
0.35000  0.324751  3.167993
0.35500  0.333121  3.218074
0.36000  0.341545  3.268102
0.36500  0.350039  3.318045
0.37000  0.358636  3.367850
0.37500  0.367377  3.417453
0.38000  0.376308  3.466787
0.38500  0.385471  3.515804
0.39000  0.394889  3.564478
0.39500  0.404561  3.612814
0.40000  0.414459  3.660839
0.40500  0.424532  3.708597
0.41000  0.434725  3.756131
0.41500  0.444987  3.803479
0.42000  0.455294  3.850659
0.42500  0.465649  3.897678
0.43000  0.476085  3.944528
0.43500  0.486651  3.991193
0.44000  0.497395  4.037653
0.44500  0.508352  4.083889
0.45000  0.519529  4.129887
0.45500  0.530912  4.175640
0.46000  0.542464  4.221161
0.46500  0.554148  4.266489
0.47000  0.565934  4.311681
0.47500  0.577811  4.356822
0.48000  0.589791  4.402006
0.48500  0.601901  4.447329
0.49000  0.614172  4.492874
0.49500  0.626630  4.538700
0.50000  0.639287  4.584831
0.50500  0.652142  4.631260
0.51000  0.665182  4.677944
0.51500  0.678398  4.724811
0.52000  0.691787  4.771770
0.52500  0.705354  4.818724
0.53000  0.719115  4.865580
0.53500  0.733084  4.912259
0.54000  0.747270  4.958702
0.54500  0.761672  5.004865
0.55000  0.776278  5.050716
0.55500  0.791067  5.096226
0.56000  0.806022  5.141365
0.56500  0.821136  5.186102
0.57000  0.836418  5.230410
0.57500  0.851906  5.274274
0.58000  0.867659  5.317700
0.58500  0.883758  5.360718
0.59000  0.900293  5.403384
0.59500  0.917349  5.445770
0.60000  0.934992  5.487955
0.60500  0.953251  5.530002
0.61000  0.972117  5.571944
0.61500  0.991538  5.613771
0.62000  1.011430  5.655422
0.62500  1.031692  5.696795
0.63000  1.052221  5.737759
0.63500  1.072942  5.778183
0.64000  1.093814  5.817966
0.64500  1.114846  5.857056
0.65000  1.136092  5.895460
0.65500  1.157635  5.933240
0.66000  1.179571  5.970490
0.66500  1.201989  6.007305
0.67000  1.224956  6.043753
0.67500  1.248516  6.079859
0.68000  1.272690  6.115597
0.68500  1.297489  6.150907
0.69000  1.322922  6.185701
0.69500  1.349002  6.219894
0.70000  1.375750  6.253403
0.70500  1.403192  6.286150
0.71000  1.431359  6.318050
0.71500  1.460282  6.348998
0.72000  1.489991  6.378851
0.72500  1.520505  6.407426
0.73000  1.551817  6.434502
0.73500  1.583881  6.459829
0.74000  1.616592  6.483149
0.74500  1.649784  6.504210
0.75000  1.683233  6.522800
0.75500  1.716679  6.538761
0.76000  1.749852  6.552010
0.76500  1.782503  6.562558
0.77000  1.814436  6.570518
0.77500  1.845524  6.576101
0.78000  1.875721  6.579605
0.78500  1.905071  6.581396
0.79000  1.933697  6.581880
0.79500  1.961796  6.581488
0.80000  1.989617  6.580659
