; From SOPRA S.A. http://www.sopra-sa.com/indices.htm
; Filename    Symbol               Range (nm)     Description
; ASI         a-Si                250      840    Amorphous Silicon
; lambda/um       n         k
0.24000  1.684400  3.331200
0.24200  1.731700  3.357000
0.24400  1.780100  3.377700
0.24600  1.831800  3.406700
0.24800  1.877400  3.421900
0.25000  1.923600  3.445800
0.25200  1.971700  3.472100
0.25400  2.010000  3.496500
0.25600  2.061000  3.522500
0.25800  2.107200  3.538200
0.26000  2.163100  3.559700
0.26200  2.209900  3.583100
0.26400  2.257100  3.599100
0.26600  2.309400  3.619100
0.26800  2.362700  3.632800
0.27000  2.414800  3.651100
0.27200  2.463600  3.660000
0.27400  2.516300  3.675500
0.27600  2.572300  3.689900
0.27800  2.631300  3.706100
0.28000  2.681600  3.712100
0.28200  2.739100  3.722000
0.28400  2.799300  3.730300
0.28600  2.852900  3.736400
0.28800  2.913000  3.738700
0.29000  2.968400  3.743900
0.29200  3.026900  3.747400
0.29400  3.082600  3.746000
0.29600  3.141900  3.746600
0.29800  3.203200  3.744400
0.30000  3.261400  3.738500
0.30200  3.323681  3.733288
0.30400  3.383100  3.726500
0.30600  3.440919  3.718062
0.30800  3.498400  3.707900
0.31000  3.558175  3.695819
0.31200  3.617400  3.682100
0.31400  3.673425  3.666893
0.31600  3.728300  3.650400
0.31800  3.783206  3.633244
0.32000  3.838100  3.614300
0.32200  3.893450  3.592156
0.32400  3.948900  3.568300
0.32600  4.005306  3.543831
0.32800  4.059500  3.518500
0.33000  4.106369  3.492862
0.33200  4.152600  3.465600
0.33400  4.205650  3.435500
0.33600  4.258100  3.402800
0.33800  4.303544  3.366000
0.34000  4.346400  3.329100
0.34200  4.389093  3.297200
0.34400  4.431200  3.265500
0.34600  4.473431  3.230169
0.34800  4.514800  3.193400
0.35000  4.554500  3.156306
0.35200  4.592700  3.118300
0.35400  4.629331  3.078887
0.35600  4.664300  3.038900
0.35800  4.697343  2.999362
0.36000  4.728900  2.959200
0.36200  4.759543  2.917107
0.36400  4.788600  2.874800
0.36600  4.815194  2.834150
0.36800  4.840500  2.793400
0.37000  4.865825  2.750762
0.37200  4.889900  2.708200
0.37400  4.911638  2.667500
0.37600  4.931800  2.627400
0.37800  4.950600  2.587387
0.38000  4.968600  2.547000
0.38200  4.986969  2.505019
0.38400  5.004100  2.463200
0.38600  5.018118  2.423456
0.38800  5.031000  2.384100
0.39000  5.044625  2.343444
0.39200  5.057400  2.303400
0.39400  5.067994  2.265987
0.39600  5.077500  2.229200
0.39800  5.086925  2.191044
0.40000  5.095200  2.153500
0.40200  5.101275  2.118319
0.40400  5.106100  2.084200
0.40600  5.109950  2.050581
0.40800  5.113800  2.017000
0.41000  5.119087  1.982469
0.41200  5.124700  1.948000
0.41400  5.130463  1.914462
0.41600  5.135000  1.881300
0.41800  5.137238  1.848312
0.42000  5.136100  1.815300
0.42200  5.159863  1.797726
0.42400  5.175486  1.776019
0.42600  5.184026  1.750789
0.42800  5.186545  1.722646
0.43000  5.184100  1.692200
0.43200  5.177752  1.660062
0.43400  5.168558  1.626843
0.43600  5.157578  1.593153
0.43800  5.145873  1.559602
0.44000  5.134500  1.526800
0.44200  5.130103  1.498533
0.44400  5.126761  1.471442
0.44600  5.124138  1.445345
0.44800  5.121897  1.420059
0.45000  5.119700  1.395400
0.45200  5.115793  1.370516
0.45400  5.111613  1.346060
0.45600  5.107175  1.322016
0.45800  5.102498  1.298368
0.46000  5.097600  1.275100
0.46200  5.092552  1.252055
0.46400  5.087304  1.229394
0.46600  5.081860  1.207134
0.46800  5.076224  1.185297
0.47000  5.070400  1.163900
0.47200  5.064255  1.143098
0.47400  5.057963  1.122741
0.47600  5.051565  1.102815
0.47800  5.045098  1.083306
0.48000  5.038600  1.064200
0.48200  5.032136  1.045549
0.48400  5.025712  1.027254
0.48600  5.019360  1.009286
0.48800  5.013112  0.991611
0.49000  5.007000  0.974200
0.49200  5.001552  0.956992
0.49400  4.996180  0.939992
0.49600  4.990792  0.923176
0.49800  4.985296  0.906520
0.50000  4.979600  0.890000
0.50200  4.973090  0.873394
0.50400  4.966327  0.856925
0.50600  4.959349  0.840619
0.50800  4.952193  0.824502
0.51000  4.944900  0.808600
0.51200  4.937676  0.792989
0.51400  4.930348  0.777630
0.51600  4.922912  0.762538
0.51800  4.915364  0.747723
0.52000  4.907700  0.733200
0.52200  4.899868  0.719073
0.52400  4.891924  0.705241
0.52600  4.883876  0.691691
0.52800  4.875732  0.678414
0.53000  4.867500  0.665400
0.53200  4.859425  0.653473
0.53400  4.851218  0.641579
0.53600  4.842830  0.629498
0.53800  4.834208  0.617011
0.54000  4.825300  0.603900
0.54200  4.813839  0.587456
0.54400  4.802546  0.570570
0.54600  4.791923  0.553647
0.54800  4.782473  0.537089
0.55000  4.774700  0.521300
0.55200  4.774250  0.508434
0.55400  4.775197  0.496705
0.55600  4.776760  0.486079
0.55800  4.778154  0.476522
0.56000  4.778600  0.468000
0.56200  4.772879  0.461492
0.56400  4.765751  0.455696
0.56600  4.757545  0.450324
0.56800  4.748586  0.445088
0.57000  4.739200  0.439700
0.57200  4.730815  0.432333
0.57400  4.722382  0.424622
0.57600  4.713951  0.416666
0.57800  4.705573  0.408559
0.58000  4.697300  0.400400
0.58200  4.689436  0.392621
0.58400  4.681715  0.384898
0.58600  4.674128  0.377245
0.58800  4.666660  0.369675
0.59000  4.659300  0.362200
0.59200  4.652132  0.354759
0.59400  4.645024  0.347458
0.59600  4.637940  0.340326
0.59800  4.630844  0.333397
0.60000  4.623700  0.326700
0.60200  4.615970  0.320757
0.60400  4.608245  0.314987
0.60600  4.600615  0.309298
0.60800  4.593171  0.303599
0.61000  4.586000  0.297800
0.61200  4.579952  0.291099
0.61400  4.574168  0.284291
0.61600  4.568548  0.277465
0.61800  4.562992  0.270706
0.62000  4.557400  0.264100
0.62200  4.551032  0.257946
0.62400  4.544588  0.252065
0.62600  4.538128  0.246491
0.62800  4.531712  0.241258
0.63000  4.525400  0.236400
0.63200  4.519793  0.232865
0.63400  4.514275  0.229542
0.63600  4.508770  0.226238
0.63800  4.503203  0.222755
0.64000  4.497500  0.218900
0.64200  4.491037  0.212925
0.64400  4.484425  0.206574
0.64600  4.477723  0.200041
0.64800  4.470994  0.193519
0.65000  4.464300  0.187200
0.65200  4.457971  0.182310
0.65400  4.451731  0.177751
0.65600  4.445577  0.173457
0.65800  4.439502  0.169362
0.66000  4.433500  0.165400
0.66200  4.427601  0.161180
0.66400  4.421757  0.157044
0.66600  4.415951  0.153008
0.66800  4.410171  0.149088
0.67000  4.404400  0.145300
0.67200  4.398536  0.141817
0.67400  4.392676  0.138458
0.67600  4.386828  0.135202
0.67800  4.381000  0.132023
0.68000  4.375200  0.128900
0.68200  4.369455  0.125703
0.68400  4.363750  0.122542
0.68600  4.358087  0.119418
0.68800  4.352468  0.116337
0.69000  4.346900  0.113300
0.69200  4.341412  0.110314
0.69400  4.335972  0.107379
0.69600  4.330576  0.104497
0.69800  4.325220  0.101670
0.70000  4.319900  0.098900
0.70200  4.314487  0.095922
0.70400  4.309134  0.093073
0.70600  4.303867  0.090423
0.70800  4.298713  0.088042
0.71000  4.293700  0.086000
0.71200  4.289124  0.085396
0.71400  4.284676  0.085012
0.71600  4.280316  0.084660
0.71800  4.276004  0.084152
0.72000  4.271700  0.083300
0.72200  4.266983  0.080492
0.72400  4.262290  0.077320
0.72600  4.257674  0.073952
0.72800  4.253193  0.070556
0.73000  4.248900  0.067300
0.73200  4.245481  0.065222
0.73400  4.242205  0.063403
0.73600  4.238967  0.061793
0.73800  4.235667  0.060342
0.74000  4.232200  0.059000
0.74200  4.228130  0.057600
0.74400  4.223773  0.056240
0.74600  4.219111  0.054900
0.74800  4.214126  0.053560
0.75000  4.208800  0.052200
0.75200  4.202611  0.050595
0.75400  4.196169  0.048982
0.75600  4.189582  0.047390
0.75800  4.182957  0.045853
0.76000  4.176400  0.044400
0.76200  4.170234  0.043172
0.76400  4.164297  0.042064
0.76600  4.158643  0.041080
0.76800  4.153326  0.040224
0.77000  4.148400  0.039500
0.77200  4.144391  0.039184
0.77400  4.140761  0.038940
0.77600  4.137446  0.038704
0.77800  4.134380  0.038412
0.78000  4.131500  0.038000
0.78200  4.128653  0.036876
0.78400  4.125882  0.035636
0.78600  4.123146  0.034348
0.78800  4.120399  0.033080
0.79000  4.117600  0.031900
0.79200  4.114433  0.031318
0.79400  4.111194  0.030849
0.79600  4.107909  0.030451
0.79800  4.104603  0.030082
0.80000  4.101300  0.029700
0.80200  4.098089  0.028916
0.80400  4.094914  0.028120
0.80600  4.091785  0.027356
0.80800  4.088711  0.026668
0.81000  4.085700  0.026100
0.81200  4.082841  0.026157
0.81400  4.080042  0.026306
0.81600  4.077293  0.026478
0.81800  4.074583  0.026599
0.82000  4.071900  0.026600
0.82200  4.069191  0.025846
0.82400  4.066497  0.024969
0.82600  4.063818  0.024039
0.82800  4.061152  0.023126
0.83000  4.058500  0.022300
0.83200  4.055859  0.021630
0.83400  4.053229  0.021185
0.83600  4.050611  0.021035
0.83800  4.048001  0.021250
0.84000  4.045400  0.021900
