; From SOPRA S.A. http://www.sopra-sa.com/indices.htm
; Filename    Symbol               Range (nm)     Description
; CDTE        CdTe                247     2479    Cadmium Telluride
; lambda/um       n         k
0.24797  2.480000  2.200000
0.25048  2.476900  2.121900
0.25303  2.480000  2.040000
0.25564  2.485600  1.960600
0.25830  2.490000  1.890000
0.26102  2.487500  1.840000
0.26380  2.480000  1.800000
0.26663  2.465600  1.763100
0.26953  2.450000  1.730000
0.27249  2.439400  1.697500
0.27552  2.430000  1.670000
0.27862  2.420600  1.653800
0.28178  2.410000  1.640000
0.28502  2.395000  1.620000
0.28834  2.380000  1.600000
0.29173  2.370000  1.581300
0.29520  2.360000  1.570000
0.29876  2.340000  1.570600
0.30240  2.330000  1.590000
0.30614  2.346900  1.639400
0.30996  2.390000  1.710000
0.31389  2.469400  1.820600
0.31791  2.570000  1.900000
0.32204  2.688700  1.856900
0.32628  2.800000  1.770000
0.33063  2.873800  1.686200
0.33510  2.920000  1.610000
0.33969  2.935000  1.566300
0.34440  2.930000  1.540000
0.34925  2.909400  1.516300
0.35424  2.890000  1.520000
0.35938  2.873100  1.593800
0.36466  2.910000  1.670000
0.37011  3.097500  1.711200
0.37571  3.300000  1.670000
0.38149  3.395000  1.423700
0.38745  3.440000  1.160000
0.39360  3.447500  1.068100
0.39995  3.430000  1.020000
0.40651  3.404100  0.940400
0.41328  3.370000  0.861000
0.42029  3.340100  0.798900
0.42754  3.310900  0.746700
0.43504  3.282500  0.703000
0.44280  3.255400  0.666600
0.45086  3.230000  0.636000
0.45920  3.209600  0.608400
0.46787  3.190800  0.584500
0.47687  3.173200  0.563200
0.48622  3.156400  0.543700
0.49594  3.140000  0.525000
0.50606  3.121000  0.500600
0.51660  3.102300  0.476600
0.52760  3.084100  0.453300
0.53907  3.066600  0.431300
0.55105  3.050000  0.411000
0.56357  3.035900  0.394900
0.57668  3.023000  0.380900
0.59041  3.011000  0.369000
0.60481  3.000100  0.359000
0.61993  2.990000  0.351000
0.63582  2.978800  0.346300
0.65255  2.968800  0.343100
0.67019  2.960400  0.341000
0.68881  2.954000  0.339400
0.70849  2.950000  0.338000
0.72932  2.964200  0.335000
0.75143  2.977700  0.331000
0.77491  2.987200  0.327000
0.79990  2.989100  0.323000
0.82657  2.980000  0.319000
0.85507  2.956500  0.315000
0.88561  2.920500  0.310999
0.91841  2.894000  0.306999
0.95373  2.872000  0.302998
0.99188  2.852700  0.298994
1.03321  2.835300  0.294992
1.07813  2.819500  0.291000
1.12714  2.805000  0.286989
1.18081  2.791700  0.282980
1.23985  2.779300  0.278971
1.30511  2.767900  0.274960
1.37761  2.757300  0.270945
1.45865  2.747500  0.266924
1.54981  2.738400  0.262895
1.65314  2.730100  0.258853
1.77122  2.722300  0.254805
1.90746  2.715200  0.250745
2.06642  2.708600  0.246657
2.25428  2.702700  0.242566
2.47970  2.697200  0.238428
