; From SOPRA S.A. http://www.sopra-sa.com/indices.htm
; Filename    Symbol               Range (nm)     Description
; CO_2        Co                  187     1907    Cobalt (hexagon thin films)
; lambda/um       n         k
0.18786  1.160000  1.590000
0.18929  1.179863  1.604311
0.19075  1.198819  1.619299
0.19223  1.216908  1.634840
0.19373  1.234165  1.650814
0.19525  1.250630  1.667096
0.19680  1.266340  1.683566
0.19838  1.281333  1.700100
0.19998  1.295646  1.716576
0.20160  1.309318  1.732871
0.20325  1.322387  1.748864
0.20493  1.334890  1.764431
0.20664  1.346865  1.779451
0.20838  1.358349  1.793800
0.21014  1.369382  1.807358
0.21194  1.380000  1.820000
0.21377  1.392215  1.827927
0.21563  1.404060  1.834754
0.21752  1.415411  1.840657
0.21944  1.426147  1.845812
0.22140  1.436145  1.850396
0.22340  1.445282  1.854584
0.22543  1.453437  1.858553
0.22750  1.460487  1.862479
0.22960  1.466308  1.866538
0.23175  1.470023  1.871160
0.23393  1.469453  1.877205
0.23616  1.467884  1.883713
0.23843  1.465498  1.890758
0.24075  1.462482  1.898414
0.24311  1.459020  1.906754
0.24552  1.455298  1.915851
0.24797  1.451499  1.925779
0.25048  1.448832  1.937172
0.25303  1.447023  1.949851
0.25564  1.445387  1.963415
0.25830  1.443927  1.977837
0.26102  1.442643  1.993091
0.26380  1.441537  2.009150
0.26663  1.440611  2.025988
0.26953  1.439919  2.043564
0.27249  1.439616  2.061815
0.27552  1.439462  2.080774
0.27862  1.439430  2.100420
0.28178  1.439492  2.120734
0.28502  1.439620  2.141696
0.28834  1.439787  2.163288
0.29173  1.439966  2.185488
0.29520  1.439367  2.208349
0.29876  1.438782  2.231774
0.30240  1.438556  2.255711
0.30614  1.438826  2.280124
0.30996  1.439731  2.304979
0.31389  1.442080  2.329126
0.31791  1.445347  2.353634
0.32204  1.449289  2.379098
0.32628  1.453838  2.405825
0.33063  1.458924  2.434124
0.33510  1.464329  2.465621
0.33969  1.470137  2.499279
0.34440  1.476365  2.534639
0.34925  1.482993  2.571585
0.35424  1.490000  2.610000
0.35938  1.496312  2.649739
0.36466  1.503215  2.690718
0.37011  1.510963  2.732829
0.37571  1.519808  2.775959
0.38149  1.530000  2.820000
0.38745  1.542480  2.865040
0.39360  1.556640  2.910720
0.39995  1.572560  2.956880
0.40651  1.590320  3.003360
0.41328  1.610000  3.050000
0.42029  1.633280  3.094720
0.42754  1.658240  3.139760
0.43504  1.684560  3.185440
0.44280  1.711920  3.232080
0.45086  1.740000  3.280000
0.45920  1.766297  3.331725
0.46787  1.793220  3.384819
0.47687  1.820994  3.439050
0.48622  1.849846  3.494187
0.49594  1.880000  3.550000
0.50606  1.915087  3.606397
0.51660  1.950973  3.662967
0.52760  1.986988  3.719442
0.53907  2.022461  3.775553
0.55105  2.056584  3.830422
0.56357  2.088519  3.883047
0.57668  2.118576  3.937455
0.59041  2.145897  3.996505
0.60481  2.170933  4.059145
0.61993  2.194670  4.121914
0.63582  2.217710  4.181812
0.65255  2.240687  4.243976
0.67019  2.263548  4.312944
0.68881  2.287895  4.387879
0.70849  2.316370  4.465179
0.72932  2.351323  4.542517
0.75143  2.391383  4.623303
0.77491  2.437957  4.708664
0.79990  2.488443  4.800536
0.82657  2.540000  4.901523
0.85507  2.590000  5.014462
0.88561  2.640000  5.135093
0.91841  2.687924  5.258877
0.95373  2.737276  5.389123
0.99188  2.791410  5.529436
1.03321  2.853172  5.682929
1.07813  2.924417  5.846242
1.12714  3.012066  6.020134
1.18081  3.109456  6.200423
1.23985  3.210126  6.380318
1.30511  3.309644  6.557652
1.37761  3.405286  6.740093
1.45865  3.486216  6.936571
1.54981  3.563532  7.140345
1.65314  3.645294  7.346843
1.77122  3.737931  7.552660
1.90746  3.847876  7.754386
