; From SOPRA S.A. http://www.sopra-sa.com/indices.htm
; Filename    Symbol               Range (nm)     Description
; CR          Cr                  206     1239    Chromium
; lambda/um       n         k
0.20664  1.460000  1.710000
0.20838  1.457500  1.716875
0.21014  1.460000  1.720000
0.21194  1.465000  1.720625
0.21377  1.470000  1.720000
0.21563  1.471875  1.719375
0.21752  1.470000  1.720000
0.21944  1.461250  1.724375
0.22140  1.450000  1.730000
0.22340  1.440000  1.734375
0.22543  1.430000  1.740000
0.22750  1.420000  1.749375
0.22960  1.410000  1.760000
0.23175  1.400000  1.769375
0.23393  1.390000  1.780000
0.23616  1.379375  1.793750
0.23843  1.370000  1.810000
0.24075  1.363750  1.828750
0.24311  1.360000  1.850000
0.24552  1.358750  1.874375
0.24797  1.360000  1.900000
0.25048  1.364375  1.925000
0.25303  1.370000  1.950000
0.25564  1.375625  1.975000
0.25830  1.380000  2.000000
0.26102  1.380000  2.025625
0.26380  1.380000  2.050000
0.26663  1.382500  2.070000
0.26953  1.390000  2.090000
0.27249  1.410000  2.114375
0.27552  1.430000  2.140000
0.27862  1.436250  2.165000
0.28178  1.440000  2.190000
0.28502  1.448125  2.214375
0.28834  1.460000  2.240000
0.29173  1.478750  2.270000
0.29520  1.500000  2.300000
0.29876  1.520000  2.325625
0.30240  1.540000  2.350000
0.30614  1.559375  2.375000
0.30996  1.580000  2.400000
0.31389  1.605000  2.425000
0.31791  1.630000  2.450000
0.32204  1.650625  2.475000
0.32628  1.670000  2.500000
0.33063  1.688750  2.525625
0.33510  1.710000  2.550000
0.33969  1.738125  2.570000
0.34440  1.770000  2.590000
0.34925  1.807500  2.615000
0.35424  1.840000  2.640000
0.35938  1.851875  2.660625
0.36466  1.860000  2.680000
0.37011  1.878125  2.699375
0.37571  1.900000  2.720000
0.38149  1.923750  2.742500
0.38745  1.950000  2.770000
0.39360  1.978750  2.808125
0.39995  2.010000  2.850000
0.40651  2.043125  2.889375
0.41328  2.080000  2.930000
0.42029  2.123125  2.975000
0.42754  2.170000  3.020000
0.43504  2.217500  3.060625
0.44280  2.270000  3.100000
0.45086  2.331250  3.140000
0.45920  2.400000  3.180000
0.46787  2.476250  3.222500
0.47687  2.560000  3.260000
0.48622  2.655000  3.283125
0.49594  2.750000  3.300000
0.50606  2.829375  3.317500
0.51660  2.910000  3.330000
0.52760  3.013125  3.332500
0.53907  3.110000  3.330000
0.55105  3.178125  3.326250
0.56357  3.220000  3.320000
0.57668  3.225000  3.309375
0.59041  3.210000  3.300000
0.60481  3.188125  3.296875
0.61993  3.160000  3.300000
0.63582  3.129375  3.312500
0.65255  3.100000  3.330000
0.67019  3.076250  3.350000
0.68881  3.060000  3.370000
0.70849  3.054375  3.385000
0.72932  3.060000  3.400000
0.75143  3.078750  3.419375
0.77491  3.110000  3.440000
0.79990  3.158125  3.460000
0.82657  3.210000  3.480000
0.85507  3.251250  3.500000
0.88561  3.290000  3.520000
0.91841  3.326875  3.541250
0.95373  3.370000  3.560000
0.99188  3.432500  3.572500
1.03321  3.500000  3.580000
1.07813  3.564375  3.578750
1.12714  3.620000  3.580000
1.18081  3.660625  3.591250
1.23985  3.680000  3.620000
