; From SOPRA S.A. http://www.sopra-sa.com/indices.htm
; Filename    Symbol               Range (nm)     Description
; CR3SI       CrSi3               210    12398    Chromium Silicide
; lambda/um       n         k
0.21014  1.396000  0.841000
0.21377  1.426000  0.808000
0.21752  1.432000  0.796000
0.22140  1.437000  0.785000
0.22543  1.442000  0.764000
0.22960  1.443000  0.748000
0.23393  1.441000  0.735000
0.23843  1.438000  0.725000
0.24311  1.434000  0.718000
0.24797  1.430000  0.712000
0.25303  1.423000  0.706000
0.25830  1.417000  0.705000
0.26380  1.410000  0.703000
0.26953  1.403000  0.705000
0.27552  1.397000  0.708000
0.28178  1.389000  0.713000
0.28834  1.381000  0.718000
0.29520  1.375000  0.724000
0.30240  1.367000  0.730000
0.30996  1.357000  0.738000
0.31791  1.347000  0.750000
0.32628  1.335000  0.766000
0.33510  1.326000  0.778000
0.34440  1.315000  0.794000
0.35424  1.305000  0.818000
0.36466  1.294000  0.848000
0.37571  1.283000  0.879000
0.38745  1.276000  0.907000
0.39995  1.268000  0.943000
0.41328  1.262000  0.988000
0.42754  1.261000  1.034000
0.44280  1.262000  1.080000
0.45920  1.267000  1.126000
0.47687  1.272000  1.175000
0.49594  1.283000  1.233000
0.51660  1.290000  1.288000
0.53907  1.303000  1.355000
0.56357  1.324000  1.428000
0.59041  1.347000  1.495000
0.61993  1.375000  1.574000
0.65255  1.410000  1.664000
0.68881  1.448000  1.754000
0.72932  1.498000  1.856000
0.77491  1.566000  1.973000
0.82657  1.655000  2.090000
0.88561  1.761000  2.111000
0.95373  1.910000  2.298000
1.03321  2.040000  2.368000
1.12714  2.178000  2.422000
1.23985  2.294000  2.451000
1.37761  2.349000  2.457000
1.54981  2.273000  2.501000
1.77122  2.078000  2.768000
2.06642  1.976000  3.311000
2.47970  1.996000  3.845000
3.09963  1.973000  5.003000
4.13284  2.146000  6.850000
6.19926  2.992000  10.625000
12.39852  5.015000  16.561000
