; From SOPRA S.A. http://www.sopra-sa.com/indices.htm
; Filename    Symbol               Range (nm)     Description
; CR5SI3      Cr5Si3              210    12398    Chromium Silicide
; lambda/um       n         k
0.21014  1.311000  0.928000
0.21377  1.315000  0.928000
0.21752  1.317000  0.931000
0.22140  1.318000  0.933000
0.22543  1.320000  0.939000
0.22960  1.321000  0.946000
0.23393  1.323000  0.956000
0.23843  1.326000  0.964000
0.24311  1.327000  0.974000
0.24797  1.330000  0.984000
0.25303  1.331000  0.994000
0.25830  1.332000  1.005000
0.26380  1.333000  1.017000
0.26953  1.335000  1.030000
0.27552  1.336000  1.043000
0.28178  1.341000  1.064000
0.28834  1.346000  1.082000
0.29520  1.349000  1.095000
0.30240  1.353000  1.110000
0.30996  1.353000  1.126000
0.31791  1.351000  1.146000
0.32628  1.348000  1.174000
0.33510  1.347000  1.199000
0.34440  1.344000  1.222000
0.35424  1.343000  1.262000
0.36466  1.348000  1.311000
0.37571  1.355000  1.359000
0.38745  1.361000  1.399000
0.39995  1.373000  1.451000
0.41328  1.392000  1.513000
0.42754  1.415000  1.573000
0.44280  1.443000  1.632000
0.45920  1.476000  1.686000
0.47687  1.507000  1.743000
0.49594  1.557000  1.807000
0.51660  1.593000  1.860000
0.53907  1.634000  1.929000
0.56357  1.689000  2.004000
0.59041  1.745000  2.069000
0.61993  1.807000  2.142000
0.65255  1.877000  2.229000
0.68881  1.954000  2.316000
0.72932  2.048000  2.411000
0.77491  2.171000  2.512000
0.82657  2.323000  2.595000
0.88561  2.472000  2.667000
0.95373  2.666000  2.685000
1.03321  2.805000  2.676000
1.12714  2.936000  2.640000
1.23985  2.995000  2.576000
1.37761  2.918000  2.531000
1.54981  2.679000  2.669000
1.77122  2.467000  3.140000
2.06642  2.470000  3.825000
2.47970  2.592000  4.456000
3.09963  2.816000  5.849000
4.13284  3.466000  7.904000
6.19926  5.169000  11.230000
12.39852  8.613000  16.090000
