; From SOPRA S.A. http://www.sopra-sa.com/indices.htm
; Filename    Symbol               Range (nm)     Description
; CRSI2EL2    CrSi2                53      112    Chromium Silicide
; lambda/um       n         k
0.05367  0.674000  0.236000
0.05391  0.668000  0.235000
0.05415  0.662000  0.233000
0.05439  0.656000  0.231000
0.05463  0.649000  0.230000
0.05487  0.642000  0.229000
0.05512  0.635000  0.227000
0.05536  0.627000  0.227000
0.05562  0.620000  0.226000
0.05587  0.613000  0.226000
0.05612  0.606000  0.227000
0.05638  0.599000  0.227000
0.05664  0.593000  0.228000
0.05690  0.586000  0.229000
0.05717  0.579000  0.230000
0.05743  0.572000  0.232000
0.05770  0.565000  0.233000
0.05798  0.557000  0.235000
0.05825  0.549000  0.238000
0.05853  0.542000  0.241000
0.05881  0.534000  0.245000
0.05909  0.527000  0.250000
0.05938  0.520000  0.255000
0.05966  0.513000  0.260000
0.05995  0.505000  0.266000
0.06025  0.498000  0.272000
0.06054  0.491000  0.279000
0.06084  0.484000  0.286000
0.06115  0.477000  0.294000
0.06145  0.470000  0.302000
0.06176  0.464000  0.311000
0.06207  0.460000  0.320000
0.06239  0.456000  0.330000
0.06271  0.452000  0.341000
0.06303  0.448000  0.352000
0.06335  0.445000  0.363000
0.06368  0.442000  0.373000
0.06401  0.440000  0.384000
0.06435  0.439000  0.395000
0.06469  0.438000  0.406000
0.06503  0.439000  0.417000
0.06537  0.440000  0.428000
0.06572  0.441000  0.440000
0.06608  0.443000  0.451000
0.06643  0.445000  0.463000
0.06679  0.446000  0.474000
0.06716  0.448000  0.485000
0.06753  0.451000  0.496000
0.06790  0.453000  0.507000
0.06828  0.456000  0.517000
0.06866  0.460000  0.527000
0.06904  0.464000  0.537000
0.06943  0.469000  0.546000
0.06983  0.474000  0.555000
0.07023  0.479000  0.564000
0.07063  0.485000  0.573000
0.07104  0.490000  0.581000
0.07145  0.495000  0.589000
0.07187  0.499000  0.597000
0.07229  0.504000  0.606000
0.07272  0.507000  0.615000
0.07315  0.511000  0.624000
0.07359  0.513000  0.633000
0.07403  0.516000  0.643000
0.07448  0.517000  0.654000
0.07493  0.519000  0.664000
0.07539  0.519000  0.675000
0.07586  0.519000  0.687000
0.07633  0.519000  0.698000
0.07681  0.520000  0.709000
0.07729  0.522000  0.719000
0.07778  0.526000  0.729000
0.07827  0.530000  0.737000
0.07877  0.535000  0.744000
0.07928  0.540000  0.752000
0.07980  0.544000  0.760000
0.08032  0.547000  0.768000
0.08085  0.551000  0.777000
0.08138  0.554000  0.785000
0.08192  0.557000  0.794000
0.08247  0.559000  0.802000
0.08303  0.562000  0.810000
0.08359  0.564000  0.817000
0.08417  0.565000  0.824000
0.08475  0.567000  0.830000
0.08534  0.569000  0.835000
0.08593  0.569000  0.840000
0.08654  0.570000  0.845000
0.08715  0.569000  0.848000
0.08777  0.568000  0.849000
0.08840  0.566000  0.848000
0.08904  0.564000  0.842000
0.08969  0.561000  0.831000
0.09035  0.558000  0.818000
0.09102  0.553000  0.801000
0.09170  0.545000  0.782000
0.09239  0.535000  0.764000
0.09309  0.521000  0.744000
0.09380  0.506000  0.722000
0.09452  0.488000  0.698000
0.09525  0.470000  0.670000
0.09599  0.451000  0.638000
0.09675  0.433000  0.602000
0.09752  0.417000  0.564000
0.09830  0.404000  0.526000
0.09909  0.393000  0.487000
0.09989  0.384000  0.450000
0.10071  0.377000  0.414000
0.10154  0.371000  0.380000
0.10239  0.366000  0.349000
0.10325  0.364000  0.322000
0.10412  0.364000  0.299000
0.10501  0.365000  0.279000
0.10592  0.367000  0.265000
0.10684  0.367000  0.254000
0.10777  0.365000  0.248000
0.10873  0.361000  0.247000
0.10970  0.355000  0.248000
0.11068  0.346000  0.254000
0.11169  0.336000  0.263000
0.11271  0.326000  0.294000
