; From SOPRA S.A. http://www.sopra-sa.com/indices.htm
; Filename    Symbol               Range (nm)     Description
; CU          Cu                  190     2479    Copper
; lambda/um       n         k
0.19075  0.958000  1.370000
0.19223  0.957093  1.392241
0.19373  0.958857  1.414571
0.19525  0.963050  1.436938
0.19680  0.969428  1.459286
0.19838  0.977750  1.481562
0.19998  0.987771  1.503714
0.20160  0.999250  1.525687
0.20325  1.011943  1.547429
0.20493  1.025607  1.568884
0.20664  1.040000  1.590000
0.20838  1.054879  1.610723
0.21014  1.070000  1.631000
0.21194  1.084375  1.650625
0.21377  1.100000  1.670000
0.21563  1.119375  1.690000
0.21752  1.140000  1.709000
0.21944  1.159375  1.725500
0.22140  1.180000  1.740000
0.22340  1.204375  1.752375
0.22543  1.230000  1.763000
0.22750  1.255000  1.771750
0.22960  1.280000  1.780000
0.23175  1.305000  1.790500
0.23393  1.330000  1.799000
0.23616  1.355313  1.800750
0.23843  1.380000  1.800000
0.24075  1.402812  1.800750
0.24311  1.425000  1.799000
0.24552  1.448437  1.790875
0.24797  1.470000  1.780000
0.25048  1.485938  1.770250
0.25303  1.500000  1.757000
0.25564  1.517187  1.733812
0.25830  1.530000  1.710000
0.26102  1.529688  1.693813
0.26380  1.525000  1.682000
0.26663  1.523125  1.675625
0.26953  1.520000  1.670000
0.27249  1.513125  1.658750
0.27552  1.505000  1.648000
0.27862  1.498750  1.643312
0.28178  1.490000  1.640000
0.28502  1.473750  1.633312
0.28834  1.455000  1.629000
0.29173  1.437813  1.630875
0.29520  1.420000  1.640000
0.29876  1.400313  1.662125
0.30240  1.380000  1.687000
0.30614  1.358438  1.703313
0.30996  1.340000  1.720000
0.31389  1.329063  1.744563
0.31791  1.325000  1.770000
0.32204  1.332500  1.791625
0.32628  1.340000  1.810000
0.33063  1.334375  1.822125
0.33510  1.325000  1.834000
0.33969  1.317812  1.851750
0.34440  1.310000  1.872000
0.34925  1.300313  1.894250
0.35424  1.290000  1.916000
0.35938  1.281563  1.931688
0.36466  1.270000  1.950000
0.37011  1.249062  1.972438
0.37571  1.225000  2.015000
0.38149  1.200000  2.121562
0.38745  1.180000  2.210000
0.39360  1.174375  2.177188
0.39995  1.175000  2.130000
0.40651  1.177500  2.160063
0.41328  1.180000  2.210000
0.42029  1.178125  2.249938
0.42754  1.175000  2.289000
0.43504  1.172812  2.326000
0.44280  1.170000  2.362000
0.45086  1.165312  2.397625
0.45920  1.160000  2.433000
0.46787  1.155312  2.469187
0.47687  1.150000  2.504000
0.48622  1.142812  2.535875
0.49594  1.135000  2.564000
0.50606  1.131562  2.589625
0.51660  1.120000  2.605000
0.52760  1.092437  2.595562
0.53907  1.040000  2.583000
0.55105  0.950375  2.576500
0.56357  0.826000  2.599000
0.57668  0.645875  2.678062
0.59041  0.468000  2.809000
0.60481  0.351250  3.010750
0.61993  0.272000  3.240000
0.63582  0.230813  3.458187
0.65255  0.214000  3.670000
0.67019  0.209250  3.863125
0.68881  0.213000  4.050000
0.70849  0.216250  4.239563
0.72932  0.223000  4.430000
0.75143  0.236500  4.619563
0.77491  0.250000  4.817000
0.79990  0.254188  5.034125
0.82657  0.260000  5.260000
0.85507  0.280000  5.485625
0.88561  0.300000  5.717000
0.91841  0.306250  5.953374
0.95373  0.310000  6.206000
0.99188  0.316250  6.483250
1.03321  0.330000  6.793000
1.07813  0.364188  7.146813
1.12714  0.400000  7.542000
1.18081  0.414438  8.116563
1.23985  0.433000  8.460000
1.30511  0.482188  7.911125
1.37761  0.536000  7.360000
1.45865  0.570125  7.669375
1.54981  0.606000  8.260000
1.65314  0.658438  8.791875
1.77122  0.723000  9.410000
1.90746  0.797563  10.139380
2.06642  0.890000  11.000000
2.25428  1.005687  12.013130
2.47970  1.150000  13.200000
