; From SOPRA S.A. http://www.sopra-sa.com/indices.htm
; Filename    Symbol               Range (nm)     Description
; CU2O        Cu2O                295     2479    Cuprous Oxide
; lambda/um       n         k
0.29520  1.978852  1.876760
0.29876  1.994013  1.857233
0.30240  2.012777  1.835120
0.30614  2.034918  1.810514
0.30996  2.060214  1.783504
0.31389  2.088441  1.754182
0.31791  2.119375  1.722639
0.32204  2.152793  1.688964
0.32628  2.188471  1.653251
0.33063  2.226184  1.615588
0.33510  2.265711  1.576068
0.33969  2.306826  1.534781
0.34440  2.349307  1.491817
0.34925  2.392930  1.447269
0.35424  2.437470  1.401226
0.35938  2.482704  1.353780
0.36466  2.528410  1.305022
0.37011  2.574362  1.255041
0.37571  2.620338  1.203931
0.38149  2.666113  1.151781
0.38745  2.711464  1.098681
0.39360  2.756167  1.044724
0.39995  2.800000  0.990000
0.40651  2.845202  0.931971
0.41328  2.888663  0.873808
0.42029  2.929903  0.815873
0.42754  2.968444  0.758531
0.43504  3.003805  0.702145
0.44280  3.035508  0.647078
0.45086  3.062539  0.593956
0.45920  3.081373  0.544624
0.46787  3.096225  0.497160
0.47687  3.107322  0.451581
0.48622  3.114892  0.407908
0.49594  3.119164  0.366157
0.50606  3.121439  0.324937
0.51660  3.121202  0.285244
0.52760  3.117477  0.248678
0.53907  3.110044  0.215848
0.55105  3.098667  0.187747
0.56357  3.083036  0.167556
0.57668  3.063094  0.151100
0.59041  3.038666  0.137625
0.60481  3.007648  0.126046
0.61993  2.969526  0.115553
0.63582  2.930872  0.106566
0.65255  2.895401  0.098850
0.67019  2.868546  0.092196
0.68881  2.843882  0.086246
0.70849  2.820007  0.080571
0.72932  2.795386  0.074987
0.75143  2.767959  0.069686
0.77491  2.733111  0.064633
0.79990  2.700000  0.060000
0.82657  2.676438  0.055959
0.85507  2.656347  0.052422
0.88561  2.637448  0.049348
0.91841  2.621387  0.046008
0.95373  2.609016  0.042744
0.99188  2.601201  0.040443
1.03321  2.595899  0.037691
1.07813  2.591810  0.034515
1.12714  2.587311  0.031347
1.18081  2.581948  0.028150
1.23985  2.575218  0.024451
1.30511  2.569868  0.020754
1.37761  2.569769  0.017827
1.45865  2.570047  0.014585
1.54981  2.569227  0.011237
1.65314  2.566955  0.008159
1.77122  2.564123  0.005417
1.90746  2.561361  0.003119
2.06642  2.559300  0.001376
2.25428  2.558569  0.000296
2.47970  2.559798  0.000012
