; From SOPRA S.A. http://www.sopra-sa.com/indices.htm
; Filename    Symbol               Range (nm)     Description
; FESI2EL2    FeSi2                53      112    Iron Silicide
; lambda/um       n         k
0.05367  0.687000  0.247000
0.05391  0.680000  0.246000
0.05414  0.672000  0.246000
0.05438  0.665000  0.145000
0.05462  0.657000  0.244000
0.05486  0.649000  0.243000
0.05510  0.640000  0.241000
0.05535  0.631000  0.240000
0.05560  0.623000  0.240000
0.05585  0.614000  0.239000
0.05610  0.606000  0.239000
0.05636  0.598000  0.240000
0.05661  0.590000  0.241000
0.05687  0.582000  0.242000
0.05714  0.575000  0.244000
0.05740  0.568000  0.245000
0.05767  0.561000  0.247000
0.05794  0.553000  0.249000
0.05821  0.544000  0.250000
0.05848  0.535000  0.252000
0.05876  0.526000  0.254000
0.05904  0.517000  0.258000
0.05932  0.509000  0.262000
0.05961  0.500000  0.267000
0.05990  0.492000  0.272000
0.06019  0.483000  0.277000
0.06048  0.475000  0.283000
0.06078  0.466000  0.289000
0.06108  0.457000  0.295000
0.06138  0.448000  0.303000
0.06168  0.439000  0.310000
0.06199  0.431000  0.318000
0.06230  0.423000  0.328000
0.06262  0.416000  0.338000
0.06294  0.410000  0.349000
0.06326  0.405000  0.360000
0.06358  0.400000  0.371000
0.06391  0.396000  0.382000
0.06424  0.393000  0.394000
0.06458  0.390000  0.406000
0.06491  0.387000  0.418000
0.06526  0.385000  0.430000
0.06560  0.384000  0.443000
0.06595  0.382000  0.456000
0.06630  0.381000  0.470000
0.06666  0.380000  0.483000
0.06702  0.379000  0.496000
0.06738  0.380000  0.509000
0.06775  0.382000  0.521000
0.06812  0.384000  0.532000
0.06850  0.388000  0.543000
0.06888  0.392000  0.553000
0.06927  0.396000  0.563000
0.06965  0.401000  0.572000
0.07005  0.406000  0.580000
0.07045  0.411000  0.588000
0.07085  0.415000  0.597000
0.07126  0.420000  0.605000
0.07167  0.423000  0.614000
0.07208  0.424000  0.623000
0.07251  0.424000  0.632000
0.07293  0.423000  0.643000
0.07336  0.421000  0.655000
0.07380  0.417000  0.667000
0.07424  0.413000  0.681000
0.07469  0.407000  0.695000
0.07514  0.402000  0.711000
0.07560  0.395000  0.729000
0.07606  0.389000  0.748000
0.07653  0.383000  0.769000
0.07701  0.379000  0.790000
0.07749  0.375000  0.812000
0.07798  0.374000  0.833000
0.07847  0.374000  0.854000
0.07897  0.376000  0.874000
0.07948  0.379000  0.893000
0.07999  0.382000  0.911000
0.08051  0.385000  0.929000
0.08104  0.389000  0.946000
0.08157  0.392000  0.964000
0.08211  0.395000  0.983000
0.08266  0.398000  1.001000
0.08321  0.402000  1.018000
0.08377  0.407000  1.034000
0.08434  0.413000  1.048000
0.08492  0.421000  1.058000
0.08551  0.428000  1.065000
0.08610  0.436000  1.067000
0.08670  0.442000  1.066000
0.08731  0.448000  1.060000
0.08793  0.451000  1.049000
0.08856  0.454000  1.034000
0.08920  0.454000  1.014000
0.08984  0.452000  0.993000
0.09050  0.448000  0.970000
0.09117  0.440000  0.948000
0.09184  0.419000  0.924000
0.09253  0.415000  0.899000
0.09322  0.399000  0.872000
0.09393  0.383000  0.840000
0.09465  0.366000  0.805000
0.09537  0.350000  0.766000
0.09611  0.336000  0.722000
0.09686  0.325000  0.675000
0.09763  0.315000  0.625000
0.09840  0.307000  0.574000
0.09919  0.301000  0.522000
0.09999  0.296000  0.471000
0.10080  0.292000  0.421000
0.10163  0.291000  0.373000
0.10247  0.292000  0.329000
0.10332  0.296000  0.290000
0.10419  0.303000  0.258000
0.10507  0.309000  0.233000
0.10597  0.314000  0.213000
0.10688  0.314000  0.201000
0.10781  0.308000  0.193000
0.10876  0.293000  0.189000
0.10972  0.268000  0.192000
0.11070  0.232000  0.203000
0.11170  0.190000  0.127000
0.11271  0.152000  0.268000
