; From SOPRA S.A. http://www.sopra-sa.com/indices.htm
; Filename    Symbol               Range (nm)     Description
; GAASOX      GaAsO               206      774    Gallium Arsenide Oxide
; lambda/um       n         k
0.20664  2.058000  0.634300
0.21014  2.127000  0.616900
0.21377  2.196000  0.581400
0.21752  2.256000  0.527500
0.22140  2.302000  0.458700
0.22543  2.328000  0.381800
0.22960  2.335000  0.304600
0.23393  2.324000  0.233700
0.23843  2.301000  0.173000
0.24311  2.271000  0.123400
0.24797  2.237000  0.084520
0.25303  2.203000  0.054790
0.25830  2.169000  0.032530
0.26380  2.138000  0.016170
0.26953  2.109000  0.004345
0.27552  2.083000  0.000000
0.28178  2.058000  0.000000
0.28834  2.036000  0.000000
0.29520  2.016000  0.000000
0.30240  1.998000  0.000000
0.30996  1.982000  0.000000
0.31791  1.967000  0.000000
0.32628  1.953000  0.000000
0.33510  1.940000  0.000000
0.34440  1.928000  0.000000
0.35424  1.918000  0.000000
0.36466  1.908000  0.000000
0.37571  1.898000  0.000000
0.38745  1.890000  0.000000
0.39995  1.881000  0.000000
0.41328  1.874000  0.000000
0.42754  1.867000  0.000000
0.44280  1.860000  0.000000
0.45920  1.854000  0.000000
0.47687  1.848000  0.000000
0.49594  1.842000  0.000000
0.51660  1.837000  0.000000
0.53907  1.832000  0.000000
0.56357  1.827000  0.000000
0.59041  1.822000  0.000000
0.61993  1.817000  0.000000
0.65255  1.813000  0.000000
0.68881  1.809000  0.000000
0.72932  1.805000  0.000000
0.77491  1.801000  0.000000
