; From SOPRA S.A. http://www.sopra-sa.com/indices.htm
; Filename    Symbol               Range (nm)     Description
; GAAS297T    GaAs                275      999    Gallium Arsenide (Temp: 297 C)
; lambda/um       n         k
0.27583  3.688700  3.145300
0.27675  3.713400  3.102800
0.27768  3.735800  3.062500
0.27862  3.755600  3.020900
0.27956  3.785500  2.997000
0.28051  3.801000  2.964600
0.28146  3.815400  2.922900
0.28243  3.833500  2.879500
0.28339  3.840300  2.835800
0.28437  3.852800  2.789100
0.28535  3.855700  2.739200
0.28634  3.858600  2.688700
0.28734  3.863600  2.643800
0.28834  3.865600  2.592200
0.28935  3.867200  2.556400
0.29036  3.865700  2.516800
0.29139  3.863300  2.480000
0.29242  3.860700  2.448000
0.29346  3.851800  2.414300
0.29450  3.843700  2.383300
0.29555  3.833200  2.359400
0.29662  3.825900  2.333000
0.29768  3.822400  2.302000
0.29876  3.815200  2.277000
0.29984  3.809400  2.253800
0.30093  3.803300  2.230100
0.30203  3.793500  2.205900
0.30314  3.782300  2.187000
0.30426  3.767600  2.166400
0.30538  3.752900  2.150000
0.30651  3.736700  2.133800
0.30766  3.724500  2.114800
0.30880  3.714900  2.093900
0.30996  3.704200  2.076700
0.31113  3.697200  2.062800
0.31231  3.689900  2.052000
0.31349  3.684300  2.045600
0.31468  3.675700  2.044300
0.31589  3.666300  2.038500
0.31710  3.656900  2.034100
0.31832  3.648700  2.026300
0.31955  3.639200  2.016100
0.32079  3.632000  2.008200
0.32204  3.626900  1.998900
0.32330  3.621800  1.991100
0.32457  3.613000  1.986100
0.32585  3.609400  1.984400
0.32714  3.600900  1.978800
0.32844  3.596000  1.974300
0.32975  3.590100  1.968500
0.33107  3.588100  1.962100
0.33240  3.584500  1.953100
0.33374  3.584200  1.950000
0.33510  3.583700  1.944200
0.33646  3.583200  1.940100
0.33783  3.580500  1.940800
0.33922  3.579700  1.942300
0.34062  3.577800  1.941300
0.34203  3.577100  1.944800
0.34345  3.574900  1.946900
0.34488  3.575600  1.948900
0.34633  3.577200  1.950200
0.34778  3.579700  1.951600
0.34925  3.582000  1.954300
0.35074  3.584800  1.957200
0.35223  3.587900  1.960000
0.35374  3.590900  1.962800
0.35526  3.595500  1.965900
0.35679  3.598700  1.969500
0.35834  3.603500  1.973700
0.35990  3.608900  1.976900
0.36147  3.614400  1.980800
0.36306  3.620000  1.984500
0.36466  3.626500  1.989200
0.36628  3.633200  1.994100
0.36791  3.641400  1.997700
0.36955  3.649700  2.003700
0.37121  3.659500  2.009500
0.37289  3.669400  2.015200
0.37458  3.681500  2.022400
0.37628  3.693300  2.031300
0.37800  3.705500  2.038800
0.37974  3.717800  2.046900
0.38149  3.733000  2.054600
0.38326  3.748500  2.062300
0.38505  3.765900  2.069400
0.38685  3.783500  2.077800
0.38867  3.803800  2.086100
0.39050  3.825500  2.095800
0.39236  3.849200  2.104400
0.39423  3.875900  2.112600
0.39612  3.904400  2.118200
0.39803  3.934600  2.125700
0.39995  3.969600  2.130700
0.40190  4.006400  2.134100
0.40386  4.046100  2.135900
0.40584  4.088800  2.135100
0.40785  4.133300  2.131800
0.40987  4.179300  2.123400
0.41191  4.224600  2.110100
0.41397  4.270000  2.091400
0.41606  4.312900  2.068800
0.41816  4.353200  2.044000
0.42029  4.390600  2.015400
0.42244  4.426200  1.987200
0.42461  4.460100  1.958700
0.42680  4.491700  1.931200
0.42901  4.523700  1.904700
0.43125  4.556700  1.878500
0.43351  4.591800  1.854600
0.43580  4.630100  1.829000
0.43811  4.673500  1.798900
0.44044  4.721000  1.764700
0.44280  4.770400  1.722200
0.44519  4.821300  1.670900
0.44760  4.869200  1.608100
0.45004  4.909500  1.538400
0.45250  4.940400  1.459500
0.45499  4.959600  1.376900
0.45751  4.966700  1.294700
0.46006  4.962700  1.215900
0.46263  4.952200  1.140400
0.46524  4.934500  1.073000
0.46787  4.912000  1.010200
0.47053  4.886100  0.952180
0.47323  4.858300  0.899900
0.47595  4.829500  0.852730
0.47871  4.799100  0.807860
0.48150  4.767500  0.766360
0.48432  4.734400  0.730430
0.48717  4.702100  0.696830
0.49006  4.671000  0.665600
0.49298  4.641100  0.636350
0.49594  4.611200  0.609320
0.49893  4.582400  0.584710
0.50196  4.554700  0.562120
0.50503  4.527700  0.540350
0.50814  4.500900  0.520950
0.51128  4.474400  0.502420
0.51446  4.449000  0.485820
0.51768  4.424600  0.469220
0.52095  4.400500  0.454960
0.52425  4.378900  0.438970
0.52760  4.356400  0.424840
0.53099  4.335500  0.411810
0.53442  4.315200  0.399140
0.53790  4.295600  0.387260
0.54142  4.276400  0.377090
0.54499  4.257900  0.366440
0.54861  4.240200  0.357360
0.55227  4.222600  0.350250
0.55599  4.204800  0.343940
0.55975  4.188000  0.335590
0.56357  4.171100  0.328670
0.56744  4.155100  0.321910
0.57136  4.139200  0.315450
0.57534  4.124300  0.308110
0.57937  4.109200  0.302380
0.58346  4.094800  0.295750
0.58761  4.080600  0.288540
0.59181  4.066800  0.283240
0.59608  4.053700  0.276200
0.60041  4.040700  0.270360
0.60481  4.028400  0.264720
0.60926  4.015600  0.258880
0.61379  4.003200  0.253880
0.61838  3.991100  0.249140
0.62304  3.978800  0.245850
0.62777  3.966900  0.241780
0.63258  3.955900  0.236980
0.63746  3.945600  0.233880
0.64241  3.935900  0.229790
0.64744  3.926300  0.226500
0.65255  3.916400  0.222400
0.65775  3.907100  0.218160
0.66302  3.898100  0.216360
0.66838  3.889400  0.212730
0.67383  3.881000  0.209590
0.67937  3.872500  0.204660
0.68500  3.865000  0.201600
0.69073  3.857700  0.198100
0.69655  3.851200  0.195010
0.70247  3.844100  0.188610
0.70849  3.836800  0.186110
0.71461  3.830800  0.182890
0.72084  3.824200  0.180170
0.72719  3.818800  0.178320
0.73364  3.813400  0.175640
0.74021  3.807000  0.169380
0.74690  3.801400  0.168650
0.75371  3.796500  0.165070
0.76065  3.791700  0.158490
0.76771  3.785400  0.152520
0.77491  3.777300  0.146610
0.78224  3.769700  0.142810
0.78971  3.761000  0.139580
0.79733  3.752800  0.137810
0.80510  3.745000  0.132380
0.81302  3.738200  0.131960
0.82109  3.729500  0.136220
0.82933  3.722900  0.138170
0.83774  3.718500  0.139160
0.84632  3.712200  0.138770
0.85507  3.707300  0.134940
0.86401  3.701800  0.133080
0.87314  3.698000  0.131590
0.88246  3.695100  0.127210
0.89198  3.692100  0.114790
0.90171  3.688200  0.108870
0.91166  3.683200  0.106060
0.92182  3.683300  0.098987
0.93222  3.684300  0.091498
0.94285  3.684300  0.087502
0.95373  3.680700  0.086910
0.96487  3.677200  0.086368
0.97626  3.673600  0.085862
0.98793  3.670100  0.085397
0.99988  3.666600  0.084967
