; From SOPRA S.A. http://www.sopra-sa.com/indices.htm
; Filename    Symbol               Range (nm)     Description
; GAAS111     GaAs                234      840    Gallium Arsenide (111)
; lambda/um       n         k
0.23400  1.523900  3.370100
0.23600  1.572300  3.447300
0.23800  1.587600  3.566700
0.24000  1.655300  3.661300
0.24200  1.760100  3.789100
0.24400  1.890700  3.923100
0.24600  2.075100  4.044400
0.24800  2.296200  4.139100
0.25000  2.546600  4.177500
0.25200  2.792600  4.166800
0.25400  3.021100  4.091700
0.25600  3.222800  3.982900
0.25800  3.378600  3.862100
0.26000  3.509700  3.748400
0.26200  3.617400  3.617000
0.26400  3.687300  3.493400
0.26600  3.754600  3.388800
0.26800  3.822300  3.272500
0.27000  3.865600  3.175200
0.27200  3.900400  3.078700
0.27400  3.955300  2.983800
0.27600  3.995800  2.884300
0.27800  4.036500  2.771600
0.28000  4.052600  2.648300
0.28200  4.049200  2.538800
0.28400  4.029100  2.429700
0.28600  4.000300  2.340800
0.28800  3.964700  2.262100
0.29000  3.926600  2.205200
0.29200  3.893100  2.145600
0.29400  3.851600  2.099100
0.29600  3.814500  2.061400
0.29800  3.777100  2.030800
0.30000  3.743400  2.004200
0.30200  3.709000  1.985200
0.30400  3.680900  1.969500
0.30600  3.654500  1.958200
0.30800  3.629300  1.948300
0.31000  3.609700  1.938200
0.31200  3.591000  1.931400
0.31400  3.575100  1.927900
0.31600  3.552000  1.929300
0.31800  3.546800  1.926300
0.32000  3.535000  1.926500
0.32200  3.526800  1.925700
0.32400  3.523800  1.924000
0.32600  3.511900  1.930500
0.32800  3.506700  1.934900
0.33000  3.501400  1.938800
0.33200  3.500900  1.941300
0.33400  3.503700  1.945800
0.33600  3.499000  1.953300
0.33800  3.501100  1.959400
0.34000  3.503900  1.966200
0.34200  3.509300  1.972900
0.34400  3.512400  1.981700
0.34600  3.515200  1.993700
0.34800  3.520400  2.003900
0.35000  3.529900  2.010600
0.35200  3.537600  2.021400
0.35400  3.545900  2.032000
0.35600  3.552900  2.045200
0.35800  3.566000  2.055600
0.36000  3.581100  2.067700
0.36200  3.593400  2.081200
0.36400  3.607900  2.095600
0.36600  3.626500  2.109900
0.36800  3.639200  2.125100
0.37000  3.661100  2.141500
0.37200  3.681500  2.156400
0.37400  3.704900  2.174000
0.37600  3.729600  2.192200
0.37800  3.759500  2.208100
0.38000  3.790400  2.233800
0.38200  3.832700  2.258200
0.38400  3.872800  2.285700
0.38600  3.919300  2.304400
0.38800  3.986300  2.323600
0.39000  4.064100  2.336000
0.39200  4.151300  2.331200
0.39400  4.240100  2.303500
0.39600  4.315800  2.258700
0.39800  4.376100  2.203700
0.40000  4.420800  2.147400
0.40200  4.451600  2.093200
0.40400  4.474700  2.047000
0.40600  4.489200  2.009000
0.40800  4.504900  1.979900
0.41000  4.516500  1.961000
0.41200  4.533700  1.947900
0.41400  4.559100  1.942500
0.41600  4.591300  1.948200
0.41800  4.639000  1.959100
0.42000  4.723900  1.962700
0.42200  4.825700  1.940700
0.42400  4.933100  1.888900
0.42600  5.063600  1.735600
0.42800  5.114800  1.615000
0.43000  5.134800  1.491200
0.43200  5.134100  1.371000
0.43400  5.114800  1.267300
0.43600  5.089000  1.180400
0.43800  5.057300  1.103300
0.44000  5.020200  1.034500
0.44200  4.980300  0.972900
0.44400  4.941700  0.919000
0.44600  4.904700  0.871300
0.44800  4.867200  0.829600
0.45000  4.842200  0.794400
0.45200  4.809361  0.761540
0.45400  4.777767  0.731416
0.45600  4.747302  0.703772
0.45800  4.717851  0.678352
0.46000  4.689300  0.654900
0.46200  4.661197  0.632902
0.46400  4.634147  0.612655
0.46600  4.608597  0.594408
0.46800  4.584638  0.577988
0.47000  4.562000  0.562800
0.47200  4.540958  0.548186
0.47400  4.520643  0.534349
0.47600  4.500165  0.521235
0.47800  4.479402  0.508758
0.48000  4.459000  0.496800
0.48200  4.439491  0.484972
0.48400  4.420562  0.473784
0.48600  4.401917  0.463691
0.48800  4.383761  0.454685
0.49000  4.366800  0.446300
0.49200  4.352461  0.438075
0.49400  4.339110  0.430254
0.49600  4.325779  0.422950
0.49800  4.312119  0.416089
0.50000  4.298400  0.409400
0.50200  4.284244  0.402465
0.50400  4.270344  0.395638
0.50600  4.257369  0.389023
0.50800  4.245353  0.382734
0.51000  4.233700  0.376900
0.51200  4.221673  0.372028
0.51400  4.209962  0.367412
0.51600  4.198972  0.362476
0.51800  4.188772  0.357156
0.52000  4.179100  0.351900
0.52200  4.169955  0.347062
0.52400  4.161037  0.342487
0.52600  4.152145  0.338235
0.52800  4.143071  0.334258
0.53000  4.133600  0.330400
0.53200  4.122742  0.326401
0.53400  4.111956  0.322495
0.53600  4.102419  0.318854
0.53800  4.094311  0.315459
0.54000  4.086800  0.312100
0.54200  4.079377  0.308414
0.54400  4.072110  0.304815
0.54600  4.064793  0.301645
0.54800  4.057402  0.298894
0.55000  4.050100  0.296200
0.55200  4.043059  0.293059
0.55400  4.036133  0.289970
0.55600  4.029211  0.287328
0.55800  4.022315  0.285096
0.56000  4.015600  0.282800
0.56200  4.009219  0.279691
0.56400  4.003129  0.276570
0.56600  3.997449  0.274085
0.56800  3.992099  0.272202
0.57000  3.986800  0.270200
0.57200  3.981322  0.266991
0.57400  3.975595  0.263722
0.57600  3.969225  0.261223
0.57800  3.962362  0.259534
0.58000  3.955700  0.257900
0.58200  3.950150  0.255435
0.58400  3.945089  0.252910
0.58600  3.940396  0.250774
0.58800  3.935924  0.249065
0.59000  3.931500  0.247400
0.59200  3.926605  0.245344
0.59400  3.921849  0.243288
0.59600  3.917873  0.241488
0.59800  3.914534  0.239944
0.60000  3.910900  0.238400
0.60200  3.905387  0.236543
0.60400  3.899702  0.234642
0.60600  3.894941  0.232833
0.60800  3.891326  0.231146
0.61000  3.888200  0.229500
0.61200  3.885268  0.227831
0.61400  3.882480  0.226198
0.61600  3.879769  0.224702
0.61800  3.876945  0.223279
0.62000  3.873700  0.221700
0.62200  3.869323  0.219470
0.62400  3.864549  0.217185
0.62600  3.859517  0.215265
0.62800  3.854638  0.213790
0.63000  3.850600  0.212500
0.63200  3.849388  0.211329
0.63400  3.848480  0.210138
0.63600  3.845831  0.208695
0.63800  3.841310  0.207002
0.64000  3.836700  0.205300
0.64200  3.833839  0.203833
0.64400  3.831382  0.202458
0.64600  3.828780  0.201202
0.64800  3.825916  0.200001
0.65000  3.823100  0.198700
0.65200  3.820540  0.196978
0.65400  3.818092  0.195183
0.65600  3.815791  0.193522
0.65800  3.813538  0.192057
0.66000  3.811100  0.190700
0.66200  3.807761  0.189557
0.66400  3.804531  0.188362
0.66600  3.802378  0.186768
0.66800  3.801257  0.184828
0.67000  3.800100  0.183000
0.67200  3.797472  0.181943
0.67400  3.794700  0.181050
0.67600  3.792584  0.180025
0.67800  3.791220  0.178754
0.68000  3.790000  0.177300
0.68200  3.788416  0.175582
0.68400  3.786752  0.173695
0.68600  3.785085  0.171638
0.68800  3.783402  0.169489
0.69000  3.781600  0.167400
0.69200  3.779550  0.165739
0.69400  3.777349  0.164082
0.69600  3.774915  0.162152
0.69800  3.772381  0.159880
0.70000  3.770100  0.157400
0.70200  3.768808  0.154638
0.70400  3.767692  0.151853
0.70600  3.766429  0.149263
0.70800  3.764702  0.146958
0.71000  3.762200  0.144900
0.71200  3.757418  0.143214
0.71400  3.752597  0.141711
0.71600  3.749856  0.140237
0.71800  3.749176  0.138766
0.72000  3.748400  0.137400
0.72200  3.744799  0.136324
0.72400  3.740802  0.135264
0.72600  3.737770  0.133974
0.72800  3.735917  0.132443
0.73000  3.734300  0.130900
0.73200  3.732174  0.129475
0.73400  3.729991  0.128230
0.73600  3.727913  0.127406
0.73800  3.725919  0.126929
0.74000  3.723800  0.126400
0.74200  3.721267  0.125258
0.74400  3.718578  0.123963
0.74600  3.715779  0.122690
0.74800  3.712991  0.121533
0.75000  3.710400  0.120500
0.75200  3.708386  0.119755
0.75400  3.706621  0.119110
0.75600  3.704926  0.118486
0.75800  3.703277  0.117809
0.76000  3.701800  0.117000
0.76200  3.700822  0.115765
0.76400  3.699805  0.114494
0.76600  3.698170  0.113458
0.76800  3.695973  0.112731
0.77000  3.693900  0.112200
0.77200  3.692928  0.112007
0.77400  3.692132  0.111786
0.77600  3.690987  0.111132
0.77800  3.689378  0.110040
0.78000  3.687600  0.108900
0.78200  3.685512  0.108274
0.78400  3.683696  0.107561
0.78600  3.683061  0.106205
0.78800  3.683402  0.104302
0.79000  3.683400  0.102600
0.79200  3.680788  0.102178
0.79400  3.678032  0.102053
0.79600  3.676988  0.101678
0.79800  3.677720  0.100949
0.80000  3.678500  0.100200
0.80200  3.677488  0.099911
0.80400  3.676012  0.099418
0.80600  3.674593  0.097906
0.80800  3.673351  0.095589
0.81000  3.672000  0.093700
0.81200  3.670373  0.094195
0.81400  3.668566  0.095158
0.81600  3.666411  0.095550
0.81800  3.664102  0.095041
0.82000  3.662200  0.094000
0.82200  3.661446  0.092162
0.82400  3.661437  0.090157
0.82600  3.662781  0.088610
0.82800  3.664795  0.087587
0.83000  3.665500  0.086600
0.83200  3.660653  0.084922
0.83400  3.655162  0.083445
0.83600  3.651026  0.082547
0.83800  3.650239  0.082606
0.84000  3.654800  0.084000
