; From SOPRA S.A. http://www.sopra-sa.com/indices.htm
; Filename    Symbol               Range (nm)     Description
; GAASO       GaAsO               206     1239    Gallium Arsenide Oxide
; lambda/um       n         k
0.20664  1.990000  0.664000
0.20838  1.987562  0.656250
0.21014  1.999000  0.647000
0.21194  2.021688  0.635750
0.21377  2.053000  0.622000
0.21563  2.090188  0.605000
0.21752  2.131000  0.585000
0.21944  2.173250  0.562313
0.22140  2.214000  0.536000
0.22340  2.252125  0.506125
0.22543  2.280000  0.470000
0.22750  2.286125  0.422812
0.22960  2.281000  0.371000
0.23175  2.271000  0.318562
0.23393  2.257000  0.268000
0.23616  2.242000  0.223250
0.23843  2.226000  0.184000
0.24075  2.210188  0.152063
0.24311  2.194000  0.125000
0.24552  2.176875  0.100875
0.24797  2.160000  0.080000
0.25048  2.144750  0.062062
0.25303  2.130000  0.047000
0.25564  2.115250  0.034687
0.25830  2.100000  0.025000
0.26102  2.083250  0.017937
0.26380  2.066000  0.013000
0.26663  2.048875  0.009750
0.26953  2.032000  0.008000
0.27249  2.015313  0.007813
0.27552  2.000000  0.008000
0.27862  1.987625  0.007125
0.28178  1.977000  0.006000
0.28502  1.967562  0.004875
0.28834  1.959000  0.004000
0.29173  1.950625  0.003875
0.29520  1.943000  0.004000
0.29876  1.936687  0.003938
0.30240  1.931000  0.004000
0.30614  1.925500  0.004562
0.30996  1.920000  0.005000
0.31389  1.913938  0.004563
0.31791  1.908000  0.004000
0.32204  1.902875  0.004000
0.32628  1.898000  0.004000
0.33063  1.892937  0.003500
0.33510  1.888000  0.003000
0.33969  1.883437  0.003000
0.34440  1.879000  0.003000
0.34925  1.874438  0.002563
0.35424  1.870000  0.002000
0.35938  1.866000  0.001438
0.36466  1.862000  0.001000
0.37011  1.857500  0.000937
0.37571  1.853000  0.001000
0.38149  1.848875  0.001063
0.38745  1.845000  0.001000
0.39360  1.841500  0.000500
0.39995  1.838000  0.000000
0.40651  1.834125  0.000062
0.41328  1.830000  0.000000
0.42029  1.825563  0.000000
0.42754  1.821000  0.000000
0.43504  1.816437  0.000000
0.44280  1.812000  0.000000
0.45086  1.807875  0.000000
0.45920  1.804000  0.000000
0.46787  1.800437  0.000000
0.47687  1.797000  0.000000
0.48622  1.793250  0.000000
0.49594  1.790000  0.000000
0.50606  1.788250  0.000000
0.51660  1.787000  0.000000
0.52760  1.785375  0.000000
0.53907  1.784000  0.000000
0.55105  1.783437  0.000000
0.56357  1.783000  0.000000
0.57668  1.782000  0.000000
0.59041  1.781000  0.000000
0.60481  1.780562  0.000000
0.61993  1.780000  0.000000
0.63582  1.778625  0.000000
0.65255  1.777000  0.000000
0.67019  1.775500  0.000000
0.68881  1.774000  0.000000
0.70849  1.772500  0.000000
0.72932  1.771000  0.000000
0.75143  1.769500  0.000000
0.77491  1.768000  0.000000
0.79990  1.766500  0.000000
0.82657  1.765000  0.000000
0.85507  1.763438  0.000000
0.88561  1.762000  0.000000
0.91841  1.760937  0.000000
0.95373  1.760000  0.000000
0.99188  1.759000  0.000000
1.03321  1.758000  0.000000
1.07813  1.756938  0.000000
1.12714  1.756000  0.000000
1.18081  1.755313  0.000000
1.23985  1.755000  0.000000
