; From SOPRA S.A. http://www.sopra-sa.com/indices.htm
; Filename    Symbol               Range (nm)     Description
; GAP100      GaP                 234      840    Gallium Phosphide (100)
; lambda/um       n         k
0.23400  2.629000  4.189500
0.23600  2.806700  4.173500
0.23800  3.002600  4.153400
0.24000  3.209900  4.105800
0.24200  3.435200  4.024000
0.24400  3.592800  3.879000
0.24600  3.729200  3.728200
0.24800  3.815500  3.583100
0.25000  3.908700  3.477700
0.25200  3.977700  3.346800
0.25400  4.038200  3.264800
0.25600  4.117000  3.161100
0.25800  4.194100  3.062500
0.26000  4.261500  2.914500
0.26200  4.301900  2.776400
0.26400  4.306100  2.633500
0.26600  4.289200  2.504700
0.26800  4.257200  2.383200
0.27000  4.209200  2.290200
0.27200  4.156600  2.221200
0.27400  4.111700  2.153900
0.27600  4.060100  2.113500
0.27800  4.024900  2.082300
0.28000  3.988600  2.058800
0.28200  3.953500  2.040200
0.28400  3.925700  2.029400
0.28600  3.898000  2.024500
0.28800  3.878300  2.020200
0.29000  3.861800  2.022100
0.29200  3.855200  2.019200
0.29400  3.841600  2.026600
0.29600  3.835700  2.031900
0.29800  3.833100  2.041900
0.30000  3.834300  2.053700
0.30200  3.838000  2.066000
0.30400  3.844400  2.083900
0.30600  3.852200  2.102100
0.30800  3.864800  2.122700
0.31000  3.886200  2.146400
0.31200  3.907100  2.170000
0.31400  3.937100  2.199100
0.31600  3.962800  2.238800
0.31800  4.001000  2.275600
0.32000  4.054500  2.327500
0.32200  4.122300  2.383000
0.32400  4.219400  2.438100
0.32600  4.356800  2.495900
0.32800  4.516200  2.528100
0.33000  4.710500  2.522400
0.33200  4.924000  2.461200
0.33400  5.137400  2.336500
0.33600  5.309300  2.159600
0.33800  5.434100  1.922900
0.34000  5.482500  1.678200
0.34200  5.472100  1.446000
0.34400  5.416500  1.256500
0.34600  5.344300  1.103200
0.34800  5.264200  0.977200
0.35000  5.185700  0.874300
0.35200  5.107100  0.793600
0.35400  5.036000  0.725700
0.35600  4.969800  0.668300
0.35800  4.905800  0.615100
0.36000  4.853400  0.576300
0.36200  4.798700  0.538700
0.36400  4.748700  0.503300
0.36600  4.702000  0.474100
0.36800  4.657200  0.447700
0.37000  4.615300  0.426200
0.37200  4.577000  0.404400
0.37400  4.539900  0.384700
0.37600  4.503600  0.365800
0.37800  4.473600  0.351300
0.38000  4.439100  0.336400
0.38200  4.404600  0.320300
0.38400  4.376400  0.309100
0.38600  4.351100  0.297300
0.38800  4.324300  0.286700
0.39000  4.301400  0.275200
0.39200  4.276400  0.265600
0.39400  4.257000  0.256500
0.39600  4.233700  0.247700
0.39800  4.214400  0.239400
0.40000  4.193800  0.231400
0.40200  4.174500  0.223600
0.40400  4.155300  0.215900
0.40600  4.137900  0.208800
0.40800  4.122200  0.201900
0.41000  4.105900  0.197100
0.41200  4.090500  0.191000
0.41400  4.077200  0.184400
0.41600  4.062900  0.178500
0.41800  4.048600  0.172700
0.42000  4.036400  0.166900
0.42200  4.025000  0.163100
0.42400  4.012800  0.156700
0.42600  3.994700  0.149700
0.42800  3.987100  0.143800
0.43000  3.980300  0.136000
0.43200  3.969300  0.129400
0.43400  3.961300  0.122600
0.43600  3.952600  0.115500
0.43800  3.945100  0.107300
0.44000  3.937800  0.096500
0.44200  3.928700  0.085300
0.44400  3.917400  0.073400
0.44600  3.903900  0.062000
0.44800  3.889700  0.052900
0.45000  3.874800  0.044600
0.45200  3.861711  0.034169
0.45400  3.846882  0.025734
0.45600  3.830907  0.019086
0.45800  3.814381  0.014011
0.46000  3.797900  0.010300
0.46200  3.782501  0.007842
0.46400  3.767833  0.006209
0.46600  3.754041  0.004944
0.46800  3.741158  0.003852
0.47000  3.729100  0.003000
0.47200  3.718005  0.002290
0.47400  3.707498  0.001731
0.47600  3.697417  0.001306
0.47800  3.687503  0.000981
0.48000  3.677400  0.000700
0.48200  3.665983  0.000341
0.48400  3.654698  0.000026
0.48600  3.644612  -0.000144
0.48800  3.635912  -0.000180
0.49000  3.627900  -0.000200
0.49200  3.620264  -0.000330
0.49400  3.612868  -0.000501
0.49600  3.605360  -0.000726
0.49800  3.597708  -0.000981
0.50000  3.590200  -0.001200
0.50200  3.583093  -0.001244
0.50400  3.576238  -0.001272
0.50600  3.569646  -0.001425
0.50800  3.563269  -0.001690
0.51000  3.557000  -0.001900
0.51200  3.550612  -0.001826
0.51400  3.544352  -0.001679
0.51600  3.538396  -0.001554
0.51800  3.532760  -0.001497
0.52000  3.527300  -0.001500
0.52200  3.521862  -0.001611
0.52400  3.516575  -0.001790
0.52600  3.511678  -0.002064
0.52800  3.507009  -0.002380
0.53000  3.502000  -0.002600
0.53200  3.495369  -0.002443
0.53400  3.488719  -0.002210
0.53600  3.483354  -0.002104
0.53800  3.479341  -0.002152
0.54000  3.475500  -0.002200
0.54200  3.470570  -0.002083
0.54400  3.465505  -0.001954
0.54600  3.460728  -0.001901
0.54800  3.456316  -0.001938
0.55000  3.452000  -0.002000
0.55200  3.447522  -0.002012
0.55400  3.443133  -0.002056
0.55600  3.438993  -0.002241
0.55800  3.435123  -0.002522
0.56000  3.431400  -0.002700
0.56200  3.427935  -0.002414
0.56400  3.424330  -0.002057
0.56600  3.419969  -0.001908
0.56800  3.414994  -0.001996
0.57000  3.410300  -0.002100
0.57200  3.407330  -0.002006
0.57400  3.404623  -0.001871
0.57600  3.401218  -0.001736
0.57800  3.397001  -0.001636
0.58000  3.392700  -0.001600
0.58200  3.388948  -0.001766
0.58400  3.385356  -0.001939
0.58600  3.381780  -0.001933
0.58800  3.378236  -0.001754
0.59000  3.374900  -0.001600
0.59200  3.372053  -0.001748
0.59400  3.369394  -0.001928
0.59600  3.366758  -0.001980
0.59800  3.364081  -0.001872
0.60000  3.361400  -0.001700
0.60200  3.358709  -0.001446
0.60400  3.355982  -0.001249
0.60600  3.353150  -0.001321
0.60800  3.350245  -0.001630
0.61000  3.347400  -0.001900
0.61200  3.344834  -0.001726
0.61400  3.342341  -0.001495
0.61600  3.339787  -0.001443
0.61800  3.337167  -0.001602
0.62000  3.334600  -0.001800
0.62200  3.332454  -0.001932
0.62400  3.330125  -0.002000
0.62600  3.326855  -0.001930
0.62800  3.322814  -0.001733
0.63000  3.319100  -0.001500
0.63200  3.317309  -0.001300
0.63400  3.316010  -0.001148
0.63600  3.314494  -0.001098
0.63800  3.312537  -0.001161
0.64000  3.310400  -0.001300
0.64200  3.307986  -0.001593
0.64400  3.305565  -0.001834
0.64600  3.303416  -0.001772
0.64800  3.301568  -0.001428
0.65000  3.299800  -0.001100
0.65200  3.297943  -0.001189
0.65400  3.296057  -0.001338
0.65600  3.294146  -0.001331
0.65800  3.292181  -0.001154
0.66000  3.290100  -0.001000
0.66200  3.287658  -0.001042
0.66400  3.285241  -0.001189
0.66600  3.283179  -0.001509
0.66800  3.281514  -0.001922
0.67000  3.280000  -0.002200
0.67200  3.278450  -0.001944
0.67400  3.276941  -0.001528
0.67600  3.275448  -0.001106
0.67800  3.273984  -0.000779
0.68000  3.272600  -0.000600
0.68200  3.271608  -0.000830
0.68400  3.270440  -0.001149
0.68600  3.268437  -0.001330
0.68800  3.265682  -0.001333
0.69000  3.263000  -0.001300
0.69200  3.261384  -0.001390
0.69400  3.260136  -0.001425
0.69600  3.259070  -0.001207
0.69800  3.258053  -0.000794
0.70000  3.257000  -0.000500
0.70200  3.255742  -0.000890
0.70400  3.254301  -0.001335
0.70600  3.252473  -0.001351
0.70800  3.250386  -0.000922
0.71000  3.248500  -0.000500
0.71200  3.247799  -0.000654
0.71400  3.247102  -0.000847
0.71600  3.245373  -0.000694
0.71800  3.242663  -0.000209
0.72000  3.240100  0.000200
0.72200  3.239208  -0.000049
0.72400  3.238572  -0.000374
0.72600  3.237318  -0.000364
0.72800  3.235361  -0.000008
0.73000  3.233400  0.000300
0.73200  3.232124  0.000082
0.73400  3.231024  -0.000241
0.73600  3.229908  -0.000478
0.73800  3.228712  -0.000551
0.74000  3.227500  -0.000500
0.74200  3.226210  -0.000131
0.74400  3.224975  0.000202
0.74600  3.223938  0.000101
0.74800  3.223097  -0.000394
0.75000  3.222300  -0.000800
0.75200  3.221432  -0.000450
0.75400  3.220500  0.000053
0.75600  3.219459  0.000406
0.75800  3.218290  0.000515
0.76000  3.217000  0.000500
0.76200  3.215509  0.000300
0.76400  3.213966  0.000084
0.76600  3.212491  0.000028
0.76800  3.211118  0.000148
0.77000  3.209800  0.000300
0.77200  3.208485  0.000353
0.77400  3.207263  0.000386
0.77600  3.206270  0.000430
0.77800  3.205461  0.000479
0.78000  3.204600  0.000500
0.78200  3.203166  0.000406
0.78400  3.201835  0.000321
0.78600  3.201256  0.000415
0.78800  3.201368  0.000634
0.79000  3.201400  0.000700
0.79200  3.200331  0.000070
0.79400  3.199042  -0.000617
0.79600  3.198005  -0.000872
0.79800  3.197298  -0.000660
0.80000  3.196600  -0.000400
0.80200  3.195684  -0.000592
0.80400  3.194656  -0.000768
0.80600  3.193423  -0.000550
0.80800  3.192078  0.000003
0.81000  3.190900  0.000400
0.81200  3.190404  -0.000195
0.81400  3.190068  -0.000858
0.81600  3.189697  -0.000880
0.81800  3.189102  -0.000240
0.82000  3.188100  0.000400
0.82200  3.185986  0.000182
0.82400  3.183689  -0.000061
0.82600  3.181747  0.000214
0.82800  3.180442  0.001053
0.83000  3.179800  0.002000
0.83200  3.180231  0.002582
0.83400  3.181338  0.003171
0.83600  3.182978  0.003869
0.83800  3.185013  0.004778
0.84000  3.187300  0.006000
