; From SOPRA S.A. http://www.sopra-sa.com/indices.htm
; Filename    Symbol               Range (nm)     Description
; GASBOX      GaSbO               206      774    Gallium Antimonide Oxide
; lambda/um       n         k
0.20664  1.894000  0.975300
0.21014  1.931000  0.976200
0.21377  1.973000  0.975100
0.21752  2.019000  0.971100
0.22140  2.070000  0.962700
0.22543  2.126000  0.948300
0.22960  2.186000  0.925900
0.23393  2.249000  0.893300
0.23843  2.313000  0.848400
0.24311  2.374000  0.789600
0.24797  2.427000  0.717000
0.25303  2.468000  0.632200
0.25830  2.492000  0.539500
0.26380  2.498000  0.444700
0.26953  2.486000  0.353800
0.27552  2.458000  0.271700
0.28178  2.420000  0.201500
0.28834  2.376000  0.144100
0.29520  2.329000  0.098880
0.30240  2.283000  0.064500
0.30996  2.239000  0.039120
0.31791  2.199000  0.020920
0.32628  2.162000  0.008312
0.33510  2.129000  0.000000
0.34440  2.100000  0.000000
0.35424  2.074000  0.000000
0.36466  2.052000  0.000000
0.37571  2.033000  0.000000
0.38745  2.016000  0.000000
0.39995  2.002000  0.000000
0.41328  1.990000  0.000000
0.42754  1.979000  0.000000
0.44280  1.971000  0.000000
0.45920  1.963000  0.000000
0.47687  1.957000  0.000000
0.49594  1.953000  0.000000
0.51660  1.949000  0.000000
0.53907  1.946000  0.000000
0.56357  1.944000  0.000000
0.59041  1.942000  0.000000
0.61993  1.941000  0.000000
0.65255  1.941000  0.000000
0.68881  1.941000  0.000000
0.72932  1.942000  0.000000
0.77491  1.943000  0.000000
