; From SOPRA S.A. http://www.sopra-sa.com/indices.htm
; Filename    Symbol               Range (nm)     Description
; GE100       Ge                  240      840    Germanium (100)
; lambda/um       n         k
0.23400  1.443900  3.009400
0.23600  1.474500  3.036500
0.23800  1.421400  3.046600
0.24000  1.413500  3.084600
0.24200  1.431100  3.143600
0.24400  1.441300  3.180600
0.24600  1.456500  3.231600
0.24800  1.472500  3.286100
0.25000  1.488000  3.343400
0.25200  1.506900  3.394400
0.25400  1.529200  3.455500
0.25600  1.551700  3.520800
0.25800  1.575800  3.583600
0.26000  1.608300  3.660300
0.26200  1.647100  3.728900
0.26400  1.683600  3.806200
0.26600  1.723900  3.884500
0.26800  1.782600  3.976500
0.27000  1.841600  4.068500
0.27200  1.901700  4.172100
0.27400  1.998700  4.292400
0.27600  2.107300  4.412200
0.27800  2.262900  4.545200
0.28000  2.468300  4.664600
0.28200  2.719500  4.731000
0.28400  2.996000  4.730600
0.28600  3.247600  4.656200
0.28800  3.460500  4.529700
0.29000  3.624400  4.385300
0.29200  3.756400  4.233900
0.29400  3.830600  4.087100
0.29600  3.891000  3.953500
0.29800  3.925600  3.835600
0.30000  3.956500  3.724900
0.30200  3.972800  3.627000
0.30400  3.986400  3.540800
0.30600  3.989400  3.465700
0.30800  3.992900  3.398400
0.31000  4.001500  3.332900
0.31200  4.009600  3.273000
0.31400  4.015900  3.221800
0.31600  4.008500  3.179600
0.31800  4.016300  3.135200
0.32000  4.019300  3.097800
0.32200  4.024300  3.061900
0.32400  4.031000  3.024700
0.32600  4.031200  2.992600
0.32800  4.035100  2.960300
0.33000  4.037900  2.932300
0.33200  4.046400  2.904300
0.33400  4.056600  2.875800
0.33600  4.055700  2.852700
0.33800  4.063600  2.827600
0.34000  4.066500  2.802200
0.34200  4.076500  2.779000
0.34400  4.081900  2.757800
0.34600  4.081900  2.739600
0.34800  4.090700  2.719500
0.35000  4.100600  2.697000
0.35200  4.106500  2.678700
0.35400  4.111700  2.662900
0.35600  4.117800  2.645300
0.35800  4.127500  2.626900
0.36000  4.137100  2.609500
0.36200  4.146700  2.591500
0.36400  4.160800  2.569600
0.36600  4.171700  2.552600
0.36800  4.184300  2.532500
0.37000  4.189600  2.514200
0.37200  4.201300  2.494400
0.37400  4.210800  2.471500
0.37600  4.222700  2.446200
0.37800  4.230000  2.423000
0.38000  4.231800  2.400500
0.38200  4.238300  2.375400
0.38400  4.238100  2.355100
0.38600  4.241800  2.332000
0.38800  4.244600  2.308600
0.39000  4.246700  2.285100
0.39200  4.245400  2.263200
0.39400  4.238500  2.238600
0.39600  4.233500  2.218400
0.39800  4.230800  2.195400
0.40000  4.222800  2.180600
0.40200  4.215300  2.165300
0.40400  4.203300  2.151500
0.40600  4.193100  2.139600
0.40800  4.180800  2.129500
0.41000  4.169500  2.122300
0.41200  4.159600  2.116200
0.41400  4.155400  2.108100
0.41600  4.145700  2.105800
0.41800  4.138400  2.101500
0.42000  4.130400  2.101800
0.42200  4.125300  2.102000
0.42400  4.119700  2.103500
0.42600  4.101200  2.110800
0.42800  4.097400  2.112800
0.43000  4.098900  2.115600
0.43200  4.096600  2.121900
0.43400  4.095100  2.127200
0.43600  4.097100  2.131700
0.43800  4.099600  2.136500
0.44000  4.101900  2.143400
0.44200  4.103600  2.149800
0.44400  4.106300  2.157400
0.44600  4.111400  2.162800
0.44800  4.114400  2.170600
0.45000  4.121100  2.176700
0.45200  4.127636  2.184176
0.45400  4.134570  2.191652
0.45600  4.141945  2.199160
0.45800  4.149807  2.206732
0.46000  4.158200  2.214400
0.46200  4.167253  2.222151
0.46400  4.176830  2.230114
0.46600  4.186740  2.238636
0.46800  4.197073  2.247536
0.47000  4.208200  2.256100
0.47200  4.220933  2.263174
0.47400  4.234254  2.269823
0.47600  4.247118  2.276590
0.47800  4.259701  2.283649
0.48000  4.273400  2.290800
0.48200  4.290498  2.297813
0.48400  4.308579  2.305142
0.48600  4.325988  2.313470
0.48800  4.342535  2.322589
0.49000  4.359500  2.331400
0.49200  4.377945  2.338238
0.49400  4.397298  2.344621
0.49600  4.417413  2.351455
0.49800  4.438335  2.358846
0.50000  4.460300  2.366100
0.50200  4.483365  2.372653
0.50400  4.507851  2.378786
0.50600  4.534374  2.384424
0.50800  4.562793  2.389668
0.51000  4.592200  2.394800
0.51200  4.620941  2.400651
0.51400  4.650912  2.406043
0.51600  4.683370  2.410428
0.51800  4.718597  2.413280
0.52000  4.755900  2.414100
0.52200  4.795597  2.411922
0.52400  4.836364  2.407207
0.52600  4.876820  2.400658
0.52800  4.916746  2.391585
0.53000  4.957100  2.377900
0.53200  5.000636  2.355421
0.53400  5.042621  2.328747
0.53600  5.079280  2.300373
0.53800  5.109692  2.271414
0.54000  5.135800  2.241600
0.54200  5.157752  2.210700
0.54400  5.176840  2.180537
0.54600  5.194373  2.153077
0.54800  5.210897  2.128698
0.55000  5.226200  2.106200
0.55200  5.239881  2.084548
0.55400  5.253318  2.064673
0.55600  5.267645  2.047312
0.55800  5.283356  2.032344
0.56000  5.300300  2.018800
0.56200  5.318070  2.005531
0.56400  5.338087  1.993289
0.56600  5.361342  1.983061
0.56800  5.388521  1.974154
0.57000  5.420000  1.964200
0.57200  5.457740  1.952152
0.57400  5.499210  1.935448
0.57600  5.543649  1.910805
0.57800  5.589620  1.877345
0.58000  5.635000  1.836600
0.58200  5.677722  1.788188
0.58400  5.716629  1.733950
0.58600  5.749869  1.674792
0.58800  5.776402  1.612074
0.59000  5.796000  1.547600
0.59200  5.806720  1.483665
0.59400  5.810736  1.420318
0.59600  5.808681  1.358223
0.59800  5.801651  1.298238
0.60000  5.791200  1.241400
0.60200  5.780019  1.190149
0.60400  5.766506  1.142239
0.60600  5.749789  1.096306
0.60800  5.730266  1.052204
0.61000  5.709600  1.011000
0.61200  5.689780  0.973908
0.61400  5.669784  0.939777
0.61600  5.649618  0.908093
0.61800  5.629149  0.878578
0.62000  5.608100  0.851200
0.62200  5.585886  0.826176
0.62400  5.563119  0.802560
0.62600  5.539690  0.779178
0.62800  5.516167  0.756051
0.63000  5.493800  0.734400
0.63200  5.475059  0.715892
0.63400  5.457506  0.698904
0.63600  5.439715  0.682617
0.63800  5.421359  0.666697
0.64000  5.403200  0.651300
0.64200  5.385760  0.635976
0.64400  5.368608  0.621404
0.64600  5.351484  0.608313
0.64800  5.334393  0.596615
0.65000  5.317600  0.585400
0.65200  5.301137  0.573435
0.65400  5.285357  0.561794
0.65600  5.271118  0.551157
0.65800  5.258060  0.541522
0.66000  5.244600  0.532200
0.66200  5.227747  0.522180
0.66400  5.210850  0.512544
0.66600  5.196377  0.504198
0.66800  5.184524  0.497067
0.67000  5.173200  0.490100
0.67200  5.160223  0.481843
0.67400  5.147297  0.473639
0.67600  5.135287  0.466297
0.67800  5.124263  0.459918
0.68000  5.113500  0.453900
0.68200  5.102237  0.447815
0.68400  5.091082  0.441798
0.68600  5.080353  0.435690
0.68800  5.070079  0.429561
0.69000  5.060000  0.423700
0.69200  5.050006  0.418719
0.69400  5.039971  0.413871
0.69600  5.029572  0.408502
0.69800  5.018887  0.402641
0.70000  5.008400  0.397000
0.70200  4.998623  0.392466
0.70400  4.989346  0.388307
0.70600  4.980708  0.384164
0.70800  4.972608  0.379960
0.71000  4.964700  0.375900
0.71200  4.956077  0.372266
0.71400  4.947978  0.368655
0.71600  4.941761  0.364644
0.71800  4.937183  0.360284
0.72000  4.932400  0.356100
0.72200  4.924953  0.352711
0.72400  4.916832  0.349695
0.72600  4.908943  0.347099
0.72800  4.901533  0.344699
0.73000  4.894200  0.342000
0.73200  4.886884  0.337929
0.73400  4.879472  0.333662
0.73600  4.871481  0.329940
0.73800  4.863202  0.326944
0.74000  4.855700  0.324300
0.74200  4.851200  0.321974
0.74400  4.847068  0.319737
0.74600  4.841253  0.317324
0.74800  4.833630  0.314668
0.75000  4.826000  0.311900
0.75200  4.820351  0.309013
0.75400  4.815059  0.306122
0.75600  4.809300  0.303315
0.75800  4.802953  0.300658
0.76000  4.796600  0.298200
0.76200  4.790689  0.296076
0.76400  4.784982  0.294176
0.76600  4.779423  0.292583
0.76800  4.774030  0.291150
0.77000  4.768900  0.289500
0.77200  4.764594  0.286989
0.77400  4.760088  0.284170
0.77600  4.754064  0.281202
0.77800  4.746804  0.278271
0.78000  4.740200  0.275600
0.78200  4.737434  0.273802
0.78400  4.735107  0.272205
0.78600  4.730729  0.270288
0.78800  4.724178  0.268048
0.79000  4.717700  0.266000
0.79200  4.713747  0.264865
0.79400  4.710405  0.263902
0.79600  4.706789  0.262764
0.79800  4.702734  0.261248
0.80000  4.698800  0.259300
0.80200  4.695668  0.255885
0.80400  4.692504  0.252818
0.80600  4.688604  0.251963
0.80800  4.683968  0.253274
0.81000  4.679300  0.254800
0.81200  4.675669  0.254752
0.81400  4.671890  0.253824
0.81600  4.666806  0.251667
0.81800  4.660641  0.248438
0.82000  4.655000  0.244800
0.82200  4.652060  0.241010
0.82400  4.650033  0.237803
0.82600  4.648517  0.236279
0.82800  4.646865  0.236502
0.83000  4.644200  0.237500
0.83200  4.637670  0.238868
0.83400  4.630989  0.240044
0.83600  4.625783  0.240516
0.83800  4.623679  0.239772
0.84000  4.626300  0.237300
