; From SOPRA S.A. http://www.sopra-sa.com/indices.htm
; Filename    Symbol               Range (nm)     Description
; HFO2        HfO2                250      900    Hafnium Oxide
; lambda/um       n         k
0.25000  2.122200  0.000000
0.26250  2.104825  0.000000
0.27500  2.088700  0.000000
0.28750  2.073775  0.000000
0.30000  2.060000  0.000000
0.31250  2.047344  0.000000
0.32500  2.035700  0.000000
0.33750  2.024963  0.000000
0.35000  2.015100  0.000000
0.36250  2.006088  0.000000
0.37500  1.997800  0.000000
0.38750  1.990100  0.000000
0.40000  1.983000  0.000000
0.41250  1.976500  0.000000
0.42500  1.970500  0.000000
0.43750  1.964900  0.000000
0.45000  1.959700  0.000000
0.46250  1.954881  0.000000
0.47500  1.950400  0.000000
0.48750  1.946206  0.000000
0.50000  1.942300  0.000000
0.51250  1.938681  0.000000
0.52500  1.935300  0.000000
0.53750  1.932100  0.000000
0.55000  1.929100  0.000000
0.56250  1.926312  0.000000
0.57500  1.923700  0.000000
0.58750  1.921231  0.000000
0.60000  1.918900  0.000000
0.61250  1.916688  0.000000
0.62500  1.914600  0.000000
0.63750  1.912650  0.000000
0.65000  1.910800  0.000000
0.66250  1.909000  0.000000
0.67500  1.907300  0.000000
0.68750  1.905756  0.000000
0.70000  1.904300  0.000000
0.71250  1.902869  0.000000
0.72500  1.901500  0.000000
0.73750  1.900219  0.000000
0.75000  1.899000  0.000000
0.76250  1.897825  0.000000
0.77500  1.896700  0.000000
0.78750  1.895625  0.000000
0.80000  1.894600  0.000000
0.81250  1.893631  0.000000
0.82500  1.892700  0.000000
0.83750  1.891775  0.000000
0.85000  1.890900  0.000000
0.86250  1.890131  0.000000
0.87500  1.889400  0.000000
0.88750  1.888669  0.000000
0.90000  1.887900  0.000000
