; From SOPRA S.A. http://www.sopra-sa.com/indices.htm
; Filename    Symbol               Range (nm)     Description
; HFSI2       HfSi2               130    24797    Hafnium Silicide
; lambda/um       n         k
0.13051  0.448000  1.248000
0.13120  0.461562  1.255937
0.13190  0.478000  1.262000
0.13260  0.493687  1.267812
0.13332  0.505000  1.275000
0.13404  0.504375  1.287250
0.13477  0.500000  1.300000
0.13550  0.497000  1.307125
0.13625  0.497000  1.317000
0.13700  0.505750  1.340250
0.13776  0.516000  1.364000
0.13853  0.521188  1.376250
0.13931  0.525000  1.385000
0.14010  0.529437  1.392062
0.14089  0.533000  1.404000
0.14170  0.533000  1.434438
0.14251  0.535000  1.464000
0.14334  0.545438  1.472875
0.14417  0.559000  1.476000
0.14501  0.573375  1.481500
0.14586  0.586000  1.490000
0.14673  0.591063  1.506750
0.14760  0.596000  1.526000
0.14849  0.609062  1.544375
0.14938  0.622000  1.560000
0.15029  0.627313  1.567875
0.15120  0.631000  1.574000
0.15213  0.637000  1.583000
0.15307  0.644000  1.594000
0.15402  0.652563  1.609187
0.15498  0.661000  1.624000
0.15596  0.667438  1.633500
0.15694  0.673000  1.641000
0.15794  0.677688  1.647313
0.15896  0.683000  1.655000
0.15998  0.691188  1.667563
0.16102  0.700000  1.683000
0.16207  0.706500  1.700687
0.16314  0.715000  1.720000
0.16422  0.730687  1.741125
0.16531  0.748000  1.761000
0.16642  0.763063  1.775313
0.16755  0.776000  1.788000
0.16869  0.784000  1.801813
0.16984  0.792000  1.816000
0.17101  0.805063  1.831188
0.17220  0.820000  1.846000
0.17341  0.835687  1.858625
0.17463  0.851000  1.871000
0.17587  0.864000  1.885250
0.17712  0.876000  1.899000
0.17840  0.887750  1.910125
0.17969  0.899000  1.920000
0.18100  0.910063  1.928000
0.18233  0.920000  1.938000
0.18368  0.926250  1.956375
0.18505  0.934000  1.975000
0.18644  0.949687  1.985562
0.18786  0.967000  1.995000
0.18929  0.980938  2.009312
0.19075  0.994000  2.023000
0.19223  1.006875  2.030563
0.19373  1.020000  2.038000
0.19525  1.034375  2.050875
0.19680  1.049000  2.065000
0.19838  1.063563  2.077813
0.19998  1.077000  2.090000
0.20160  1.086625  2.100250
0.20325  1.097000  2.112000
0.20493  1.112937  2.129750
0.20664  1.131000  2.149000
0.20838  1.149563  2.167188
0.21014  1.168000  2.183000
0.21194  1.185313  2.191500
0.21377  1.201000  2.201000
0.21563  1.213125  2.221250
0.21752  1.225000  2.243000
0.21944  1.239500  2.258187
0.22140  1.256000  2.273000
0.22340  1.275500  2.293375
0.22543  1.296000  2.312000
0.22750  1.314938  2.320625
0.22960  1.335000  2.328000
0.23175  1.359750  2.341188
0.23393  1.384000  2.357000
0.23616  1.403313  2.375938
0.23843  1.419000  2.394000
0.24075  1.429500  2.406125
0.24311  1.439000  2.416000
0.24552  1.451812  2.423562
0.24797  1.466000  2.435000
0.25048  1.480750  2.458375
0.25303  1.497000  2.488000
0.25564  1.514750  2.521125
0.25830  1.536000  2.557000
0.26102  1.564125  2.594375
0.26380  1.595000  2.632000
0.26663  1.624375  2.669125
0.26953  1.656000  2.703000
0.27249  1.691562  2.727500
0.27552  1.733000  2.752000
0.27862  1.782125  2.787000
0.28178  1.841000  2.823000
0.28502  1.915688  2.855813
0.28834  1.996000  2.880000
0.29173  2.074375  2.886125
0.29520  2.149000  2.882000
0.29876  2.216249  2.871313
0.30240  2.274000  2.857000
0.30614  2.314812  2.842875
0.30996  2.351000  2.830000
0.31389  2.394813  2.821438
0.31791  2.439000  2.815000
0.32204  2.479625  2.808938
0.32628  2.519000  2.805000
0.33063  2.557625  2.804812
0.33510  2.597000  2.807000
0.33969  2.637000  2.811687
0.34440  2.683000  2.816000
0.34925  2.741938  2.814813
0.35424  2.809000  2.815000
0.35938  2.881000  2.829625
0.36466  2.960000  2.835000
0.37011  3.051875  2.807875
0.37571  3.142000  2.760000
0.38149  3.217937  2.690625
0.38745  3.279000  2.614000
0.39360  3.316937  2.546563
0.39995  3.342000  2.481000
0.40651  3.362625  2.413438
0.41328  3.376000  2.350000
0.42029  3.380375  2.297875
0.42754  3.381000  2.250000
0.43504  3.384437  2.201312
0.44280  3.385000  2.153000
0.45086  3.380062  2.102813
0.45920  3.367000  2.056000
0.46787  3.339250  2.013937
0.47687  3.306000  1.986000
0.48622  3.271688  1.986000
0.49594  3.244000  2.002000
0.50606  3.235125  2.032562
0.51660  3.236000  2.060000
0.52760  3.243562  2.057812
0.53907  3.252000  2.051000
0.55105  3.252625  2.058187
0.56357  3.251000  2.072000
0.57668  3.249062  2.091937
0.59041  3.249000  2.116000
0.60481  3.253500  2.140563
0.61993  3.263000  2.170000
0.63582  3.277500  2.210562
0.65255  3.301000  2.253000
0.67019  3.339625  2.288063
0.68881  3.387000  2.322000
0.70849  3.438500  2.360188
0.72932  3.495000  2.396000
0.75143  3.555250  2.423313
0.77491  3.621000  2.446000
0.79990  3.694250  2.468500
0.82657  3.773000  2.483000
0.85507  3.858625  2.481125
0.88561  3.943000  2.469000
0.91841  4.016875  2.449063
0.95373  4.085000  2.424000
0.99188  4.150750  2.398500
1.03321  4.209000  2.369000
1.07813  4.251313  2.336688
1.12714  4.291000  2.292000
1.18081  4.356937  2.220062
1.23985  4.394000  2.138000
1.30511  4.338438  2.045875
1.37761  4.245000  1.980000
1.45865  4.149687  1.983250
1.54981  4.045000  2.036000
1.65314  3.932063  2.128625
1.77122  3.821000  2.274000
1.90746  3.723125  2.491625
2.06642  3.636000  2.752000
2.25428  3.556687  3.004937
2.47970  3.498000  3.332000
2.75523  3.457375  3.796625
3.09963  3.478000  4.403000
3.54243  3.579937  5.153313
4.13284  3.830000  6.117000
4.95941  4.327875  7.359001
6.19926  4.995000  8.895000
8.26568  5.797375  10.753000
12.39852  6.701001  12.961000
24.79704  12.360000  25.382000
