; From SOPRA S.A. http://www.sopra-sa.com/indices.htm
; Filename    Symbol               Range (nm)     Description
; HGCDTE2     Hg0.8Cd0.2Te        200      900    Mercury Cadmium Telluride (20% Cd)
; lambda/um       n         k
0.20000  1.470000  1.650000
0.20543  1.453550  1.692750
0.21085  1.418820  1.717520
0.21628  1.410100  1.775990
0.22171  1.432010  1.863810
0.22713  1.482250  1.951900
0.23256  1.569650  2.032600
0.23798  1.664800  2.087840
0.24341  1.769990  2.136160
0.24884  1.886360  2.166790
0.25426  2.010910  2.178190
0.25969  2.141240  2.171600
0.26512  2.267380  2.132430
0.27054  2.380470  2.062800
0.27597  2.458540  1.971890
0.28140  2.502170  1.882070
0.28682  2.520590  1.800590
0.29225  2.518770  1.741260
0.29767  2.513720  1.699090
0.30310  2.509350  1.669540
0.30853  2.506230  1.646840
0.31395  2.502840  1.631480
0.31938  2.502000  1.620620
0.32481  2.502000  1.614640
0.33023  2.502750  1.612240
0.33566  2.505600  1.613730
0.34109  2.510780  1.616870
0.34651  2.517010  1.624020
0.35194  2.525260  1.633260
0.35736  2.536030  1.644030
0.36279  2.548500  1.656500
0.36822  2.564290  1.671390
0.37364  2.582080  1.687460
0.37907  2.602260  1.704230
0.38450  2.625790  1.722840
0.38992  2.652680  1.742460
0.39535  2.683610  1.762870
0.40078  2.719860  1.783330
0.40620  2.763070  1.804690
0.41163  2.816050  1.822760
0.41705  2.875550  1.836500
0.42248  2.944060  1.833980
0.42791  3.011880  1.813870
0.43333  3.069170  1.779770
0.43876  3.112190  1.741430
0.44419  3.143080  1.703220
0.44961  3.165600  1.668470
0.45504  3.183210  1.638680
0.46047  3.196630  1.613720
0.46589  3.207850  1.593520
0.47132  3.218830  1.577290
0.47674  3.229660  1.563480
0.48217  3.240190  1.555380
0.48760  3.253080  1.548780
0.49302  3.267090  1.545140
0.49845  3.282620  1.544370
0.50388  3.301200  1.545850
0.50930  3.322930  1.550160
0.51473  3.350590  1.556890
0.52016  3.382180  1.564680
0.52558  3.423460  1.572820
0.53101  3.476690  1.578420
0.53643  3.541680  1.572450
0.54186  3.613010  1.547800
0.54729  3.681050  1.502770
0.55271  3.736350  1.442640
0.55814  3.774100  1.377740
0.56357  3.797770  1.313720
0.56899  3.811390  1.253380
0.57442  3.817700  1.196240
0.57984  3.818310  1.144960
0.58527  3.814840  1.098600
0.59070  3.809680  1.055500
0.59612  3.803440  1.016650
0.60155  3.795370  0.981124
0.60698  3.781450  0.948341
0.61240  3.771600  0.918040
0.61783  3.766310  0.889593
0.62326  3.756780  0.865002
0.62868  3.746380  0.841148
0.63411  3.736880  0.818922
0.63953  3.726910  0.799144
0.64496  3.717670  0.780243
0.65039  3.708340  0.762474
0.65581  3.698320  0.746225
0.66124  3.688690  0.731114
0.66667  3.680880  0.716524
0.67209  3.671840  0.703698
0.67752  3.663540  0.690201
0.68295  3.656040  0.679004
0.68837  3.648950  0.667708
0.69380  3.641860  0.655214
0.69922  3.634100  0.644439
0.70465  3.627180  0.635018
0.71008  3.621270  0.624867
0.71550  3.615910  0.614121
0.72093  3.609400  0.604643
0.72636  3.603570  0.596464
0.73178  3.598240  0.588412
0.73721  3.593430  0.579964
0.74264  3.588060  0.572968
0.74806  3.582400  0.566306
0.75349  3.576450  0.559887
0.75891  3.572370  0.553841
0.76434  3.568000  0.548233
0.76977  3.562960  0.543248
0.77519  3.558000  0.538355
0.78062  3.553310  0.533586
0.78605  3.549650  0.529257
0.79147  3.545730  0.524844
0.79690  3.541610  0.520361
0.80233  3.537060  0.513056
0.80775  3.532380  0.506309
0.81318  3.527300  0.507213
0.81860  3.522830  0.506264
0.82403  3.519510  0.501890
0.82946  3.517270  0.495880
0.83488  3.515940  0.488504
0.84031  3.514610  0.481129
0.84574  3.513290  0.473754
0.85116  3.511960  0.466378
0.85659  3.510630  0.459003
0.86202  3.509300  0.451627
0.86744  3.507970  0.444252
0.87287  3.506640  0.436877
0.87829  3.505310  0.429501
0.88372  3.503980  0.422126
0.88915  3.502650  0.414750
0.89457  3.501330  0.407375
0.90000  3.500000  0.400000
