; From SOPRA S.A. http://www.sopra-sa.com/indices.htm
; Filename    Symbol               Range (nm)     Description
; HGCDTE3     Hg0.71Cd0.29Te      200      900    Mercury Cadmium Telluride (29% Cd)
; lambda/um       n         k
0.20000  1.420000  1.715000
0.20543  1.390400  1.712530
0.21085  1.384490  1.742540
0.21628  1.378370  1.817650
0.22171  1.413470  1.919430
0.22713  1.481020  2.018790
0.23256  1.589180  2.097090
0.23798  1.703150  2.149530
0.24341  1.825320  2.184880
0.24884  1.948710  2.200170
0.25426  2.081030  2.198470
0.25969  2.215390  2.171400
0.26512  2.341760  2.112540
0.27054  2.440530  2.019830
0.27597  2.496830  1.919660
0.28140  2.518590  1.832460
0.28682  2.521000  1.764080
0.29225  2.519250  1.717710
0.29767  2.516480  1.681600
0.30310  2.513450  1.654640
0.30853  2.511230  1.635490
0.31395  2.510000  1.620780
0.31938  2.510390  1.612020
0.32481  2.511580  1.606640
0.33023  2.513500  1.605750
0.33566  2.517470  1.608600
0.34109  2.524700  1.614740
0.34651  2.533020  1.622020
0.35194  2.544330  1.632290
0.35736  2.558040  1.644530
0.36279  2.573390  1.658440
0.36822  2.592890  1.674290
0.37364  2.615700  1.691880
0.37907  2.641360  1.710230
0.38450  2.670950  1.728840
0.38992  2.706950  1.749460
0.39535  2.750340  1.769420
0.40078  2.802380  1.785890
0.40620  2.865200  1.794120
0.41163  2.931820  1.783900
0.41705  2.996540  1.762970
0.42248  3.046980  1.728660
0.42791  3.085100  1.690400
0.43333  3.113660  1.653770
0.43876  3.134280  1.621940
0.44419  3.150310  1.595220
0.44961  3.163210  1.572690
0.45504  3.175720  1.553530
0.46047  3.187120  1.539360
0.46589  3.198230  1.529630
0.47132  3.210920  1.522470
0.47674  3.226080  1.516940
0.48217  3.243080  1.516130
0.48760  3.264240  1.517300
0.49302  3.289330  1.520980
0.49845  3.319240  1.526660
0.50388  3.356410  1.533350
0.50930  3.404600  1.536710
0.51473  3.466310  1.528200
0.52016  3.532570  1.510920
0.52558  3.597160  1.469590
0.53101  3.650850  1.414500
0.53643  3.689440  1.352930
0.54186  3.710490  1.290460
0.54729  3.729830  1.229890
0.55271  3.737440  1.172080
0.55814  3.738780  1.098120
0.56357  3.736920  1.061160
0.56899  3.731880  1.031740
0.57442  3.725030  0.992082
0.57984  3.716540  0.957393
0.58527  3.707680  0.925087
0.59070  3.697370  0.896062
0.59612  3.688590  0.862388
0.60155  3.678470  0.843800
0.60698  3.669210  0.820632
0.61240  3.659180  0.798298
0.61783  3.649310  0.778617
0.62326  3.641620  0.758913
0.62868  3.632260  0.742266
0.63411  3.622880  0.725243
0.63953  3.614380  0.709677
0.64496  3.606300  0.695678
0.65039  3.598370  0.682079
0.65581  3.590100  0.669477
0.66124  3.581950  0.658268
0.66667  3.574990  0.647408
0.67209  3.566760  0.637706
0.67752  3.560030  0.628228
0.68295  3.553590  0.618855
0.68837  3.546950  0.609737
0.69380  3.540200  0.600968
0.69922  3.534770  0.592596
0.70465  3.529470  0.584165
0.71008  3.524270  0.576350
0.71550  3.519270  0.568890
0.72093  3.514930  0.560424
0.72636  3.510680  0.554509
0.73178  3.505990  0.548765
0.73721  3.500490  0.542102
0.74264  3.498760  0.537119
0.74806  3.495980  0.531087
0.75349  3.491350  0.523477
0.75891  3.486770  0.517945
0.76434  3.482500  0.512857
0.76977  3.478720  0.508188
0.77519  3.475500  0.504604
0.78062  3.472080  0.501292
0.78605  3.467200  0.498061
0.79147  3.464030  0.492690
0.79690  3.462260  0.485553
0.80233  3.456580  0.487452
0.80775  3.450660  0.489739
0.81318  3.447830  0.483408
0.81860  3.445220  0.477803
0.82403  3.443000  0.473539
0.82946  3.441110  0.468719
0.83488  3.439490  0.463433
0.84031  3.437860  0.458146
0.84574  3.436240  0.452860
0.85116  3.434610  0.447574
0.85659  3.432990  0.442288
0.86202  3.431370  0.437002
0.86744  3.429740  0.431716
0.87287  3.428120  0.426430
0.87829  3.426490  0.421144
0.88372  3.424870  0.415858
0.88915  3.423240  0.410572
0.89457  3.421620  0.405286
0.90000  3.420000  0.400000
