; From SOPRA S.A. http://www.sopra-sa.com/indices.htm
; Filename    Symbol               Range (nm)     Description
; INASOX      InAsO               206      774    Indium Arsenide Oxide
; lambda/um       n         k
0.20664  1.875000  0.567000
0.21014  1.921000  0.572600
0.21377  1.971000  0.569700
0.21752  2.025000  0.555500
0.22140  2.079000  0.528400
0.22543  2.127000  0.487700
0.22960  2.166000  0.435500
0.23393  2.192000  0.375600
0.23843  2.203000  0.313100
0.24311  2.200000  0.253100
0.24797  2.186000  0.199100
0.25303  2.164000  0.152900
0.25830  2.138000  0.114900
0.26380  2.110000  0.084520
0.26953  2.082000  0.060760
0.27552  2.054000  0.042470
0.28178  2.028000  0.028580
0.28834  2.004000  0.018170
0.29520  1.981000  0.010460
0.30240  1.960000  0.004853
0.30996  1.941000  0.000855
0.31791  1.923000  0.000000
0.32628  1.907000  0.000000
0.33510  1.892000  0.000000
0.34440  1.878000  0.000000
0.35424  1.865000  0.000000
0.36466  1.853000  0.000000
0.37571  1.842000  0.000000
0.38745  1.832000  0.000000
0.39995  1.822000  0.000000
0.41328  1.813000  0.000000
0.42754  1.805000  0.000000
0.44280  1.797000  0.000000
0.45920  1.789000  0.000000
0.47687  1.782000  0.000000
0.49594  1.776000  0.000000
0.51660  1.769000  0.000000
0.53907  1.763000  0.000000
0.56357  1.757000  0.000000
0.59041  1.752000  0.000000
0.61993  1.746000  0.000000
0.65255  1.741000  0.000000
0.68881  1.736000  0.000000
0.72932  1.731000  0.000000
0.77491  1.726000  0.000000
