; From SOPRA S.A. http://www.sopra-sa.com/indices.htm
; Filename    Symbol               Range (nm)     Description
; INGASB7     In0.3Ga0.7Sb        225      825    Indium Gallium Antimonide (70% Ga)
; lambda/um       n         k
0.22500  1.174601  2.553697
0.23000  1.250203  2.563111
0.23500  1.291410  2.563863
0.24000  1.301887  2.580610
0.24500  1.298792  2.625722
0.25000  1.297788  2.698321
0.25500  1.307730  2.792602
0.26000  1.332743  2.903214
0.26500  1.375199  3.026529
0.27000  1.437545  3.160135
0.27500  1.523207  3.301885
0.28000  1.636846  3.449052
0.28500  1.784702  3.595827
0.29000  1.973040  3.733251
0.29500  2.206060  3.846303
0.30000  2.480865  3.913927
0.30500  2.781056  3.913522
0.31000  3.074362  3.832666
0.31500  3.323167  3.681017
0.32000  3.503602  3.490840
0.32500  3.617408  3.298356
0.33000  3.684073  3.125566
0.33500  3.724414  2.976328
0.34000  3.750030  2.844641
0.34500  3.763205  2.725009
0.35000  3.763148  2.617174
0.35500  3.751492  2.524225
0.36000  3.733279  2.448379
0.36500  3.714663  2.388515
0.37000  3.700131  2.340370
0.37500  3.690856  2.298417
0.38000  3.684766  2.258264
0.38500  3.678193  2.218301
0.39000  3.668066  2.179685
0.39500  3.653231  2.144955
0.40000  3.634389  2.116471
0.40500  3.613248  2.095609
0.41000  3.591694  2.082727
0.41500  3.571327  2.077498
0.42000  3.553336  2.079272
0.42500  3.538549  2.087332
0.43000  3.527557  2.101033
0.43500  3.520836  2.119859
0.44000  3.518868  2.143425
0.44500  3.522239  2.171439
0.45000  3.531737  2.203636
0.45500  3.548434  2.239653
0.46000  3.573743  2.278852
0.46500  3.609231  2.320762
0.47000  3.657193  2.361959
0.47500  3.719078  2.399777
0.48000  3.795515  2.429467
0.48500  3.885026  2.445184
0.49000  3.983047  2.441197
0.49500  4.081861  2.413926
0.50000  4.172130  2.363914
0.50500  4.245693  2.296337
0.51000  4.298048  2.219420
0.51500  4.329061  2.141739
0.52000  4.341488  2.070535
0.52500  4.340805  2.009012
0.53000  4.331397  1.959434
0.53500  4.317372  1.922015
0.54000  4.301973  1.896075
0.54500  4.287052  1.880339
0.55000  4.275717  1.874025
0.55500  4.268820  1.875692
0.56000  4.267612  1.884156
0.56500  4.273218  1.898210
0.57000  4.286699  1.916555
0.57500  4.309052  1.937703
0.58000  4.341148  1.959888
0.58500  4.383622  1.981005
0.59000  4.436698  1.998594
0.59500  4.499987  2.009920
0.60000  4.572294  2.012166
0.60500  4.651515  2.002736
0.61000  4.734663  1.979640
0.61500  4.818114  1.941860
0.62000  4.898011  1.889599
0.62500  4.970778  1.824294
0.63000  5.033574  1.748399
0.63500  5.084591  1.664976
0.64000  5.123119  1.577241
0.64500  5.149409  1.488168
0.65000  5.164425  1.400233
0.65500  5.169558  1.315302
0.66000  5.166376  1.234645
0.66500  5.156441  1.159015
0.67000  5.141194  1.088755
0.67500  5.121898  1.023920
0.68000  5.099616  0.964357
0.68500  5.075219  0.909792
0.69000  5.049407  0.859884
0.69500  5.022733  0.814261
0.70000  4.995623  0.772546
0.70500  4.968406  0.734377
0.71000  4.941329  0.699412
0.71500  4.914576  0.667336
0.72000  4.888281  0.637861
0.72500  4.862541  0.610727
0.73000  4.837420  0.585703
0.73500  4.812960  0.562578
0.74000  4.789188  0.541167
0.74500  4.766115  0.521306
0.75000  4.743743  0.502845
0.75500  4.722066  0.485654
0.76000  4.701073  0.469616
0.76500  4.680749  0.454626
0.77000  4.661077  0.440592
0.77500  4.642037  0.427429
0.78000  4.623000  0.414855
0.78500  4.605170  0.403229
0.79000  4.587909  0.392274
0.79500  4.571195  0.381935
0.80000  4.555006  0.372164
0.80500  4.539322  0.362917
0.81000  4.524124  0.354155
0.81500  4.509391  0.345842
0.82000  4.495105  0.337944
0.82500  4.481247  0.330432
