; From SOPRA S.A. http://www.sopra-sa.com/indices.htm
; Filename    Symbol               Range (nm)     Description
; INGASB9     In0.1Ga0.9Sb        225      825    Indium Gallium Antimonide (90% Ga)
; lambda/um       n         k
0.22500  1.221060  2.628405
0.23000  1.290491  2.637013
0.23500  1.324501  2.644261
0.24000  1.332095  2.673115
0.24500  1.331689  2.731857
0.25000  1.337529  2.817357
0.25500  1.357168  2.923510
0.26000  1.394390  3.045331
0.26500  1.452017  3.179426
0.27000  1.533469  3.323139
0.27500  1.643371  3.473610
0.28000  1.788068  3.625158
0.28500  1.974267  3.769056
0.29000  2.207106  3.890350
0.29500  2.485100  3.967307
0.30000  2.792930  3.975404
0.30500  3.097958  3.898156
0.31000  3.358334  3.743243
0.31500  3.544833  3.544067
0.32000  3.656148  3.342281
0.32500  3.713573  3.166210
0.33000  3.743870  3.023158
0.33500  3.765592  2.905349
0.34000  3.784657  2.800903
0.34500  3.798095  2.702736
0.35000  3.801565  2.611161
0.35500  3.794743  2.530479
0.36000  3.781752  2.464019
0.36500  3.768367  2.411474
0.37000  3.758910  2.369119
0.37500  3.754461  2.331807
0.38000  3.752882  2.295445
0.38500  3.750472  2.258690
0.39000  3.744170  2.222943
0.39500  3.732879  2.190953
0.40000  3.717387  2.165253
0.40500  3.699509  2.147361
0.41000  3.681250  2.137758
0.41500  3.664347  2.136235
0.42000  3.650159  2.142261
0.42500  3.639743  2.155237
0.43000  3.633996  2.174627
0.43500  3.633824  2.199985
0.44000  3.640290  2.230904
0.44500  3.654750  2.266887
0.45000  3.678738  2.307786
0.45500  3.714860  2.350868
0.46000  3.765199  2.394144
0.46500  3.831695  2.433442
0.47000  3.914834  2.462816
0.47500  4.012213  2.475147
0.48000  4.117429  2.463991
0.48500  4.220486  2.426350
0.49000  4.310430  2.364823
0.49500  4.379090  2.287286
0.50000  4.423504  2.204018
0.50500  4.445299  2.124790
0.51000  4.450232  2.054976
0.51500  4.443707  1.998217
0.52000  4.430977  1.955351
0.52500  4.416288  1.925832
0.53000  4.402905  1.908444
0.53500  4.392752  1.901545
0.54000  4.389065  1.903929
0.54500  4.392951  1.913750
0.55000  4.405954  1.929211
0.55500  4.429461  1.948245
0.56000  4.464611  1.968383
0.56500  4.512109  1.986681
0.57000  4.571957  1.999748
0.57500  4.643152  2.003937
0.58000  4.723454  1.995735
0.58500  4.809365  1.972302
0.59000  4.896396  1.932052
0.59500  4.979655  1.875052
0.60000  5.054595  1.803088
0.60500  5.117711  1.719326
0.61000  5.166936  1.627702
0.61500  5.201703  1.532235
0.62000  5.222673  1.436486
0.62500  5.231334  1.343253
0.63000  5.229592  1.254489
0.63500  5.219443  1.171382
0.64000  5.202765  1.094505
0.64500  5.181201  1.023988
0.65000  5.156127  0.959663
0.65500  5.128654  0.901184
0.66000  5.099653  0.848113
0.66500  5.069797  0.799972
0.67000  5.039593  0.756286
0.67500  5.009420  0.716600
0.68000  4.979554  0.680493
0.68500  4.950194  0.647581
0.69000  4.921476  0.617519
0.69500  4.893495  0.590000
0.70000  4.866307  0.564750
0.70500  4.839946  0.541529
0.71000  4.814428  0.520125
0.71500  4.789752  0.500350
0.72000  4.765909  0.482039
0.72500  4.742883  0.465048
0.73000  4.720652  0.449247
0.73500  4.699191  0.434522
0.74000  4.677877  0.420568
0.74500  4.657888  0.407716
0.75000  4.638587  0.395671
0.75500  4.619947  0.384362
0.76000  4.601940  0.373727
0.76500  4.584538  0.363710
0.77000  4.567716  0.354258
0.77500  4.551448  0.345329
0.78000  4.535711  0.336879
0.78500  4.520480  0.328873
0.79000  4.505734  0.321277
0.79500  4.491452  0.314060
0.80000  4.477613  0.307197
0.80500  4.464198  0.300661
0.81000  4.451189  0.294430
0.81500  4.438569  0.288484
0.82000  4.426321  0.282803
0.82500  4.414430  0.277371
