; From SOPRA S.A. http://www.sopra-sa.com/indices.htm
; Filename    Symbol               Range (nm)     Description
; INP         InP                 206     2479    Indium Phosphide
; lambda/um       n         k
0.20664  1.336000  2.113000
0.20838  1.307875  2.148688
0.21014  1.301000  2.183000
0.21194  1.296188  2.229438
0.21377  1.299000  2.280000
0.21563  1.308750  2.331250
0.21752  1.325000  2.383000
0.21944  1.348437  2.435062
0.22140  1.375000  2.484000
0.22340  1.401812  2.523687
0.22543  1.426000  2.562000
0.22750  1.442000  2.602500
0.22960  1.455000  2.652000
0.23175  1.465563  2.719250
0.23393  1.482000  2.802000
0.23616  1.510000  2.901188
0.23843  1.558000  3.016000
0.24075  1.632124  3.154124
0.24311  1.745000  3.291000
0.24552  1.923749  3.408999
0.24797  2.131000  3.495000
0.25048  2.335251  3.517062
0.25303  2.546000  3.514000
0.25564  2.754939  3.535062
0.25830  2.984000  3.517000
0.26102  3.284375  3.406813
0.26380  3.560000  3.223000
0.26663  3.722436  2.939814
0.26953  3.800000  2.637000
0.27249  3.774125  2.389751
0.27552  3.697000  2.186000
0.27862  3.614500  2.046437
0.28178  3.527000  1.948000
0.28502  3.451687  1.876125
0.28834  3.384000  1.826000
0.29173  3.325500  1.788063
0.29520  3.275000  1.762000
0.29876  3.232125  1.744812
0.30240  3.196000  1.735000
0.30614  3.165625  1.729938
0.30996  3.141000  1.730000
0.31389  3.121875  1.734875
0.31791  3.108000  1.744000
0.32204  3.098938  1.756687
0.32628  3.095000  1.773000
0.33063  3.096312  1.792812
0.33510  3.103000  1.816000
0.33969  3.114750  1.841937
0.34440  3.133000  1.872000
0.34925  3.158250  1.906500
0.35424  3.193000  1.948000
0.35938  3.232438  1.999438
0.36466  3.299000  2.060000
0.37011  3.419125  2.145625
0.37571  3.576000  2.209000
0.38149  3.765875  2.210812
0.38745  3.976000  2.143000
0.39360  4.221749  1.965375
0.39995  4.415000  1.735000
0.40651  4.441125  1.483188
0.41328  4.395000  1.247000
0.42029  4.332688  1.086125
0.42754  4.256000  0.964000
0.43504  4.187125  0.864750
0.44280  4.121000  0.786000
0.45086  4.060375  0.720875
0.45920  4.004000  0.667000
0.46787  3.951500  0.619813
0.47687  3.903000  0.579000
0.48622  3.858750  0.542875
0.49594  3.818000  0.511000
0.50606  3.780125  0.482313
0.51660  3.745000  0.457000
0.52760  3.712250  0.435375
0.53907  3.682000  0.416000
0.55105  3.654312  0.397500
0.56357  3.629000  0.380000
0.57668  3.605937  0.363125
0.59041  3.585000  0.347000
0.60481  3.566250  0.331438
0.61993  3.549000  0.317000
0.63582  3.532312  0.304563
0.65255  3.517000  0.293000
0.67019  3.503500  0.281750
0.68881  3.492000  0.270000
0.70849  3.483000  0.256063
0.72932  3.476000  0.242000
0.75143  3.471188  0.229188
0.77491  3.467000  0.218000
0.79990  3.463275  0.214875
0.82657  3.456000  0.203000
0.85507  3.440150  0.161858
0.88561  3.418600  0.109000
0.91841  3.392025  0.048783
0.95373  3.362000  0.000281
0.99188  3.328650  0.006654
1.03321  3.297000  0.000000
1.07813  3.273562  0.000018
1.12714  3.254000  0.000000
1.18081  3.236125  0.000000
1.23985  3.220000  0.000000
1.30511  3.204875  0.000000
1.37761  3.191000  0.000000
1.45865  3.178500  0.000000
1.54981  3.167000  0.000000
1.65314  3.156062  0.000000
1.77122  3.146000  0.000000
1.90746  3.137200  0.000000
2.06642  3.129000  0.000000
2.25428  3.121000  0.000000
2.47970  3.114000  0.000000
