; From SOPRA S.A. http://www.sopra-sa.com/indices.htm
; Filename    Symbol               Range (nm)     Description
; IR3SI5P     Ir3Si5              225     2066    Iridium Silicide
; lambda/um       n         k
0.22543  1.922000  1.974000
0.22960  1.948000  2.047000
0.23393  1.965000  2.050000
0.23843  1.996000  2.048000
0.24311  2.024000  2.044000
0.24797  2.056000  2.043000
0.25303  2.085000  2.041000
0.25830  2.108000  2.042000
0.26380  2.139000  2.056000
0.26953  2.169000  2.059000
0.27552  2.196000  2.071000
0.28178  2.227000  2.081000
0.28834  2.259000  2.099000
0.29520  2.303000  2.117000
0.30240  2.336000  2.134000
0.30996  2.382000  2.150000
0.31791  2.420000  2.166000
0.32628  2.469000  2.184000
0.33510  2.523000  2.205000
0.34440  2.581000  2.226000
0.35424  2.664000  2.269000
0.36466  2.752000  2.272000
0.37571  2.792000  2.278000
0.38745  2.855000  2.286000
0.39995  2.964000  2.303000
0.41328  3.064000  2.304000
0.42754  3.151000  2.282000
0.44280  3.236000  2.234000
0.45920  3.377000  2.193000
0.47687  3.424000  2.125000
0.49594  3.476000  2.063000
0.51660  3.529000  2.002000
0.53907  3.554000  1.938000
0.56357  3.573000  1.880000
0.59041  3.580000  1.846000
0.61993  3.581000  1.813000
0.65255  3.574000  1.780000
0.68881  3.558000  1.775000
0.72932  3.564000  1.782000
0.77491  3.551000  1.824000
0.82657  3.564000  1.892000
0.88561  3.641000  2.006000
0.95373  3.717000  2.076000
1.03321  3.764000  2.092000
1.12714  3.810000  2.109000
1.23985  3.843000  2.142000
1.37761  3.902000  2.172000
1.54981  3.912000  2.263000
1.77122  3.938000  2.267000
2.06642  3.939000  2.675000
