; From SOPRA S.A. http://www.sopra-sa.com/indices.htm
; Filename    Symbol               Range (nm)     Description
; NBSI-A      NbSi2               206    24797    Niobium Silicide (parallel to c axis)
; lambda/um       n         k
0.20664  1.400000  3.200000
0.20838  1.519251  3.113562
0.21014  1.655000  2.996000
0.21194  1.778750  2.874437
0.21377  1.862000  2.776000
0.21563  1.839625  2.752875
0.21752  1.793000  2.757000
0.21944  1.793187  2.754875
0.22140  1.806000  2.755000
0.22340  1.820187  2.754750
0.22543  1.838000  2.754000
0.22750  1.858313  2.751750
0.22960  1.880000  2.748000
0.23175  1.901937  2.741937
0.23393  1.923000  2.735000
0.23616  1.941000  2.728437
0.23843  1.958000  2.722000
0.24075  1.975750  2.715937
0.24311  1.993000  2.710000
0.24552  2.009063  2.703938
0.24797  2.024000  2.698000
0.25048  2.037750  2.692188
0.25303  2.050000  2.687000
0.25564  2.060125  2.682875
0.25830  2.069000  2.680000
0.26102  2.077500  2.678438
0.26380  2.085000  2.679000
0.26663  2.090625  2.682562
0.26953  2.096000  2.689000
0.27249  2.102375  2.698750
0.27552  2.110000  2.711000
0.27862  2.119563  2.724937
0.28178  2.131000  2.741000
0.28502  2.144438  2.759875
0.28834  2.160000  2.780000
0.29173  2.177438  2.800250
0.29520  2.198000  2.820000
0.29876  2.224687  2.837750
0.30240  2.252000  2.855000
0.30614  2.273000  2.872562
0.30996  2.295000  2.891000
0.31389  2.325125  2.912125
0.31791  2.357000  2.933000
0.32204  2.384625  2.949312
0.32628  2.414000  2.967000
0.33063  2.449563  2.993937
0.33510  2.490000  3.020000
0.33969  2.537375  3.036000
0.34440  2.586000  3.047000
0.34925  2.629500  3.054312
0.35424  2.672000  3.060000
0.35938  2.715813  3.067875
0.36466  2.760000  3.074000
0.37011  2.805562  3.075125
0.37571  2.849000  3.073000
0.38149  2.886250  3.067000
0.38745  2.920000  3.061000
0.39360  2.952062  3.058500
0.39995  2.981000  3.060000
0.40651  3.004313  3.068187
0.41328  3.027000  3.080000
0.42029  3.053063  3.093063
0.42754  3.083000  3.108000
0.43504  3.120063  3.124625
0.44280  3.160000  3.143000
0.45086  3.197937  3.161875
0.45920  3.239000  3.185000
0.46787  3.285375  3.218000
0.47687  3.341000  3.254000
0.48622  3.411688  3.289500
0.49594  3.494000  3.320000
0.50606  3.588000  3.340188
0.51660  3.689000  3.349000
0.52760  3.793250  3.343562
0.53907  3.898000  3.324000
0.55105  4.001062  3.287687
0.56357  4.097000  3.240000
0.57668  4.178125  3.185375
0.59041  4.249000  3.124000
0.60481  4.312063  3.054312
0.61993  4.366000  2.986000
0.63582  4.408875  2.931750
0.65255  4.445000  2.881000
0.67019  4.478250  2.826125
0.68881  4.508000  2.771000
0.70849  4.537062  2.716312
0.72932  4.559000  2.664000
0.75143  4.564188  2.616437
0.77491  4.565000  2.573000
0.79990  4.573750  2.535125
0.82657  4.581000  2.499000
0.85507  4.582562  2.459563
0.88561  4.575000  2.422000
0.91841  4.551688  2.388375
0.95373  4.518000  2.363000
0.99188  4.476687  2.350250
1.03321  4.429000  2.352000
1.07813  4.375937  2.372250
1.12714  4.321000  2.409000
1.18081  4.269938  2.465563
1.23985  4.217000  2.530000
1.30511  4.165563  2.583375
1.37761  4.094000  2.650000
1.45865  3.975563  2.731812
1.54981  3.829000  2.877000
1.65314  3.639375  3.142375
1.77122  3.481000  3.504000
1.90746  3.440063  3.966250
2.06642  3.466000  4.501000
2.25428  3.512000  5.073312
2.47970  3.653000  5.708000
2.75523  3.969812  6.417000
3.09963  4.398000  7.204000
3.54243  4.933375  8.026999
4.13284  5.476000  9.035000
4.95941  5.827500  10.244940
6.19926  6.279000  12.011000
8.26568  6.999249  14.603060
12.39852  8.157001  18.291000
24.79704  15.460000  37.682000
