; From SOPRA S.A. http://www.sopra-sa.com/indices.htm
; Filename    Symbol               Range (nm)     Description
; NI          Ni                  190     2479    Nickel
; lambda/um       n         k
0.19075  1.013125  1.426875
0.19223  1.012109  1.442735
0.19373  1.010000  1.460000
0.19525  1.007266  1.478516
0.19680  1.004375  1.498125
0.19838  1.001797  1.518672
0.19998  1.000000  1.540000
0.20160  1.001458  1.564375
0.20325  1.003833  1.588250
0.20493  1.006792  1.610500
0.20664  1.010000  1.630000
0.20838  1.013125  1.645625
0.21014  1.020000  1.670000
0.21194  1.029375  1.699375
0.21377  1.040000  1.730000
0.21563  1.049375  1.755625
0.21752  1.060000  1.780000
0.21944  1.074375  1.805000
0.22140  1.090000  1.830000
0.22340  1.104375  1.854375
0.22543  1.120000  1.880000
0.22750  1.138750  1.910000
0.22960  1.160000  1.940000
0.23175  1.183750  1.965625
0.23393  1.210000  1.990000
0.23616  1.239375  2.016250
0.23843  1.270000  2.040000
0.24075  1.299375  2.056250
0.24311  1.330000  2.070000
0.24552  1.364375  2.086250
0.24797  1.400000  2.100000
0.25048  1.435625  2.106875
0.25303  1.470000  2.110000
0.25564  1.500625  2.111250
0.25830  1.530000  2.110000
0.26102  1.561250  2.105625
0.26380  1.590000  2.100000
0.26663  1.611250  2.095625
0.26953  1.630000  2.090000
0.27249  1.650000  2.080000
0.27552  1.670000  2.070000
0.27862  1.691250  2.065625
0.28178  1.710000  2.060000
0.28502  1.721875  2.045625
0.28834  1.730000  2.030000
0.29173  1.736250  2.018750
0.29520  1.740000  2.010000
0.29876  1.741250  2.005000
0.30240  1.740000  2.000000
0.30614  1.735625  1.989375
0.30996  1.730000  1.980000
0.31389  1.726250  1.978125
0.31791  1.720000  1.980000
0.32204  1.706250  1.983125
0.32628  1.690000  1.990000
0.33063  1.674375  2.002500
0.33510  1.660000  2.020000
0.33969  1.648750  2.044375
0.34440  1.640000  2.070000
0.34925  1.634375  2.089375
0.35424  1.630000  2.110000
0.35938  1.625000  2.138750
0.36466  1.620000  2.170000
0.37011  1.614375  2.199375
0.37571  1.610000  2.230000
0.38149  1.609375  2.265000
0.38745  1.610000  2.300000
0.39360  1.610000  2.329375
0.39995  1.610000  2.360000
0.40651  1.609375  2.398750
0.41328  1.610000  2.440000
0.42029  1.614375  2.479375
0.42754  1.620000  2.520000
0.43504  1.625000  2.563750
0.44280  1.630000  2.610000
0.45086  1.635000  2.659375
0.45920  1.640000  2.710000
0.46787  1.644375  2.758750
0.47687  1.650000  2.810000
0.48622  1.658125  2.868125
0.49594  1.670000  2.930000
0.50606  1.688750  2.994375
0.51660  1.710000  3.060000
0.52760  1.729375  3.124375
0.53907  1.750000  3.190000
0.55105  1.774375  3.258750
0.56357  1.800000  3.330000
0.57668  1.823750  3.403125
0.59041  1.850000  3.480000
0.60481  1.881875  3.563750
0.61993  1.920000  3.650000
0.63582  1.966875  3.733750
0.65255  2.020000  3.820000
0.67019  2.077500  3.915000
0.68881  2.140000  4.010000
0.70849  2.208125  4.098750
0.72932  2.280000  4.180000
0.75143  2.357500  4.245625
0.77491  2.430000  4.310000
0.79990  2.481875  4.388125
0.82657  2.530000  4.470000
0.85507  2.590625  4.546250
0.88561  2.650000  4.630000
0.91841  2.695625  4.734375
0.95373  2.740000  4.850000
0.99188  2.793125  4.971250
1.03321  2.850000  5.100000
1.07813  2.911250  5.233125
1.12714  2.970000  5.380000
1.18081  3.021250  5.546875
1.23985  3.060000  5.740000
1.30511  3.110000  5.980000
1.37761  3.180000  6.230000
1.45865  3.270000  6.510000
1.54981  3.380000  6.820000
1.65314  3.490000  7.130000
1.77122  3.590000  7.480000
1.90746  3.690000  7.920000
2.06642  3.840000  8.350000
2.25428  3.900000  8.920000
2.47970  4.030000  9.640000
