; From SOPRA S.A. http://www.sopra-sa.com/indices.htm
; Filename    Symbol               Range (nm)     Description
; NI2SI       Ni2Si               213    12398    Nickel Silicide
; lambda/um       n         k
0.21377  1.470000  1.318000
0.21752  1.489000  1.320000
0.22140  1.512000  1.315000
0.22543  1.532000  1.330000
0.22960  1.550000  1.336000
0.23393  1.567000  1.345000
0.23843  1.587000  1.353000
0.24311  1.606000  1.363000
0.24797  1.627000  1.372000
0.25303  1.651000  1.379000
0.25830  1.673000  1.384000
0.26380  1.695000  1.384000
0.26953  1.711000  1.386000
0.27552  1.728000  1.388000
0.28178  1.743000  1.389000
0.28834  1.757000  1.388000
0.29520  1.765000  1.387000
0.30240  1.771000  1.386000
0.30996  1.770000  1.388000
0.31791  1.767000  1.395000
0.32628  1.760000  1.407000
0.33510  1.751000  1.423000
0.34440  1.733000  1.447000
0.35424  1.736000  1.494000
0.36466  1.739000  1.525000
0.37571  1.739000  1.562000
0.38745  1.742000  1.605000
0.39995  1.749000  1.652000
0.41328  1.758000  1.699000
0.42754  1.764000  1.751000
0.44280  1.772000  1.811000
0.45920  1.784000  1.882000
0.47687  1.803000  1.965000
0.49594  1.851000  2.045000
0.51660  1.889000  2.115000
0.53907  1.931000  2.195000
0.56357  1.979000  2.274000
0.59041  2.027000  2.360000
0.61993  2.075000  2.452000
0.65255  2.129000  2.564000
0.68881  2.209000  2.696000
0.72932  2.313000  2.820000
0.77491  2.430000  2.949000
0.82657  2.570000  3.075000
0.88561  2.728000  3.208000
0.95373  2.923000  3.298000
1.03321  3.081000  3.376000
1.12714  3.222000  3.476000
1.23985  3.372000  3.626000
1.37761  3.613000  3.815000
1.54981  3.757000  3.872000
1.77122  4.094000  3.899000
2.06642  3.783000  4.259000
2.47970  3.784000  5.097000
3.09963  4.107000  6.289000
4.13284  4.749000  7.970000
6.19926  5.650000  11.142000
12.39852  7.853000  17.554000
