; From SOPRA S.A. http://www.sopra-sa.com/indices.htm
; Filename    Symbol               Range (nm)     Description
; NI3SI       Ni3Si               213    12398    Nickel Silicide
; lambda/um       n         k
0.21377  1.773000  0.982000
0.21752  1.776000  0.995000
0.22140  1.782000  1.011000
0.22543  1.788000  1.024000
0.22960  1.792000  1.037000
0.23393  1.797000  1.052000
0.23843  1.804000  1.065000
0.24311  1.809000  1.078000
0.24797  1.815000  1.093000
0.25303  1.823000  1.104000
0.25830  1.827000  1.113000
0.26380  1.827000  1.122000
0.26953  1.822000  1.135000
0.27552  1.817000  1.153000
0.28178  1.815000  1.176000
0.28834  1.817000  1.199000
0.29520  1.821000  1.221000
0.30240  1.825000  1.237000
0.30996  1.823000  1.254000
0.31791  1.818000  1.271000
0.32628  1.806000  1.291000
0.33510  1.790000  1.317000
0.34440  1.769000  1.352000
0.35424  1.756000  1.399000
0.36466  1.744000  1.460000
0.37571  1.732000  1.497000
0.38745  1.722000  1.555000
0.39995  1.714000  1.618000
0.41328  1.709000  1.684000
0.42754  1.702000  1.755000
0.44280  1.696000  1.831000
0.45920  1.689000  1.916000
0.47687  1.677000  2.016000
0.49594  1.680000  2.126000
0.51660  1.678000  2.247000
0.53907  1.681000  2.390000
0.56357  1.699000  2.553000
0.59041  1.736000  2.734000
0.61993  1.793000  2.929000
0.65255  1.871000  3.139000
0.68881  1.979000  3.367000
0.72932  2.123000  3.605000
0.77491  2.298000  3.849000
0.82657  2.527000  4.088000
0.88561  2.746000  4.337000
0.95373  3.072000  4.611000
1.03321  3.352000  4.891000
1.12714  3.837000  5.221000
1.23985  4.699000  5.471000
1.37761  5.382000  5.318000
1.54981  5.896000  5.153000
1.77122  6.479000  5.121000
2.06642  7.096000  4.783000
2.47970  7.641000  4.115000
3.09963  6.788000  3.790000
4.13284  6.980000  5.612000
6.19926  7.922000  6.356000
12.39852  7.599000  10.640000
