; From SOPRA S.A. http://www.sopra-sa.com/indices.htm
; Filename    Symbol               Range (nm)     Description
; NISI        NiSi                213    12398    Nickel Silicide
; lambda/um       n         k
0.21377  1.167000  1.632000
0.21752  1.191000  1.659000
0.22140  1.221000  1.692000
0.22543  1.251000  1.724000
0.22960  1.282000  1.756000
0.23393  1.313000  1.790000
0.23843  1.347000  1.824000
0.24311  1.383000  1.861000
0.24797  1.425000  1.900000
0.25303  1.476000  1.939000
0.25830  1.536000  1.971000
0.26380  1.601000  1.992000
0.26953  1.664000  2.004000
0.27552  1.725000  2.010000
0.28178  1.783000  2.011000
0.28834  1.843000  2.005000
0.29520  1.896000  1.991000
0.30240  1.942000  1.970000
0.30996  1.976000  1.950000
0.31791  2.009000  1.926000
0.32628  2.026000  1.900000
0.33510  2.029000  1.876000
0.34440  2.007000  1.869000
0.35424  2.009000  1.898000
0.36466  2.012000  1.914000
0.37571  2.020000  1.940000
0.38745  2.033000  1.963000
0.39995  2.039000  1.986000
0.41328  2.040000  2.017000
0.42754  2.037000  2.061000
0.44280  2.043000  2.125000
0.45920  2.067000  2.194000
0.47687  2.093000  2.262000
0.49594  2.133000  2.332000
0.51660  2.168000  2.413000
0.53907  2.221000  2.510000
0.56357  2.299000  2.616000
0.59041  2.431000  2.724000
0.61993  2.599000  2.763000
0.65255  2.731000  2.750000
0.68881  2.850000  2.734000
0.72932  2.950000  2.670000
0.77491  2.990000  2.588000
0.82657  2.973000  2.496000
0.88561  2.859000  2.447000
0.95373  2.702000  2.420000
1.03321  2.388000  2.475000
1.12714  1.987000  2.778000
1.23985  1.682000  3.344000
1.37761  1.568000  4.014000
1.54981  1.541000  4.730000
1.77122  1.477000  5.535000
2.06642  1.325000  6.661000
2.47970  1.255000  8.392000
3.09963  1.437000  10.832000
4.13284  1.947000  14.656000
6.19926  2.931000  21.965000
12.39852  5.343000  35.835000
