; From SOPRA S.A. http://www.sopra-sa.com/indices.htm
; Filename    Symbol               Range (nm)     Description
; OS          Os                  206     2479    Osmium
; lambda/um       n         k
0.19075  1.031250  2.271250
0.19223  1.044844  2.300938
0.19373  1.060000  2.330000
0.19525  1.076406  2.358438
0.19680  1.093750  2.386250
0.19838  1.111719  2.413437
0.19998  1.130000  2.440000
0.20160  1.145625  2.462917
0.20325  1.162000  2.486417
0.20493  1.179875  2.511708
0.20664  1.200000  2.540000
0.20838  1.223125  2.572500
0.21014  1.240000  2.600000
0.21194  1.254375  2.625000
0.21377  1.270000  2.650000
0.21563  1.294375  2.679375
0.21752  1.320000  2.710000
0.21944  1.340000  2.740000
0.22140  1.360000  2.770000
0.22340  1.384375  2.800625
0.22543  1.410000  2.830000
0.22750  1.434375  2.855000
0.22960  1.460000  2.880000
0.23175  1.489375  2.909375
0.23393  1.520000  2.940000
0.23616  1.549375  2.969375
0.23843  1.580000  3.000000
0.24075  1.613125  3.035625
0.24311  1.650000  3.070000
0.24552  1.694375  3.097500
0.24797  1.740000  3.120000
0.25048  1.781875  3.135625
0.25303  1.820000  3.150000
0.25564  1.851250  3.168750
0.25830  1.880000  3.190000
0.26102  1.909375  3.213125
0.26380  1.940000  3.240000
0.26663  1.972500  3.273750
0.26953  2.010000  3.310000
0.27249  2.056250  3.345625
0.27552  2.110000  3.380000
0.27862  2.171875  3.412500
0.28178  2.240000  3.440000
0.28502  2.314375  3.460625
0.28834  2.390000  3.470000
0.29173  2.462500  3.459375
0.29520  2.530000  3.440000
0.29876  2.589375  3.421875
0.30240  2.640000  3.400000
0.30614  2.680625  3.369375
0.30996  2.710000  3.340000
0.31389  2.724375  3.320625
0.31791  2.730000  3.310000
0.32204  2.731250  3.310000
0.32628  2.730000  3.320000
0.33063  2.728750  3.340625
0.33510  2.730000  3.370000
0.33969  2.737500  3.404375
0.34440  2.750000  3.450000
0.34925  2.762500  3.512500
0.35424  2.790000  3.590000
0.35938  2.848750  3.693125
0.36466  2.930000  3.790000
0.37011  3.040000  3.842500
0.37571  3.150000  3.880000
0.38149  3.220000  3.910000
0.38745  3.290000  3.960000
0.39360  3.375000  4.078125
0.39995  3.510000  4.210000
0.40651  3.756250  4.334375
0.41328  4.050000  4.400000
0.42029  4.358750  4.326875
0.42754  4.650000  4.180000
0.43504  4.871876  3.991249
0.44280  5.050000  3.780000
0.45086  5.196250  3.590000
0.45920  5.300000  3.380000
0.46787  5.350625  3.102501
0.47687  5.360000  2.820000
0.48622  5.335001  2.588125
0.49594  5.280000  2.380000
0.50606  5.201250  2.183125
0.51660  5.100000  2.010000
0.52760  4.974999  1.870625
0.53907  4.840000  1.760000
0.55105  4.713750  1.679375
0.56357  4.580000  1.620000
0.57668  4.421250  1.567500
0.59041  4.260000  1.540000
0.60481  4.110000  1.555000
0.61993  3.980000  1.600000
0.63582  3.880000  1.670000
0.65255  3.810000  1.750000
0.67019  3.790000  1.810000
0.68881  3.780000  1.830000
0.70849  3.760000  1.800000
0.72932  3.700000  1.750000
0.75143  3.570000  1.660000
0.77491  3.360000  1.620000
0.79990  3.096666  1.668333
0.82657  2.840000  1.800000
0.85507  2.650000  2.010000
0.88561  2.490000  2.230000
0.91841  2.350000  2.480000
0.95373  2.250000  2.770000
0.99188  2.190000  3.040000
1.03321  2.160000  3.350000
1.07813  2.170000  3.590000
1.12714  2.150000  3.840000
1.18081  2.120000  4.110000
1.23985  2.090000  4.410000
1.30511  2.050000  4.740000
1.37761  2.030000  5.100000
1.45865  2.010000  5.510000
1.54981  2.000000  5.950000
1.65314  2.000000  6.460000
1.77122  2.020000  7.040000
1.90746  2.110000  7.680000
2.06642  2.210000  8.370000
2.25428  2.330000  9.120000
2.47970  2.410000  9.970000
