; From SOPRA S.A. http://www.sopra-sa.com/indices.htm
; Filename    Symbol               Range (nm)     Description
; P_SIAS      SiAs                240      840    Silicon Arsenide
; lambda/um       n         k
0.24000  1.640100  3.386100
0.24200  1.654600  3.415700
0.24400  1.669500  3.457900
0.24600  1.691000  3.518000
0.24800  1.703000  3.560400
0.25000  1.724400  3.627700
0.25200  1.746100  3.689400
0.25400  1.776300  3.767200
0.25600  1.801900  3.831500
0.25800  1.831300  3.915100
0.26000  1.885900  4.006400
0.26200  1.933800  4.102900
0.26400  2.002300  4.194000
0.26600  2.071000  4.298500
0.26800  2.165600  4.409400
0.27000  2.272900  4.516500
0.27200  2.393400  4.621500
0.27400  2.542900  4.715300
0.27600  2.700300  4.793500
0.27800  2.880600  4.863000
0.28000  3.056200  4.913500
0.28200  3.263300  4.949300
0.28400  3.481100  4.967200
0.28600  3.687300  4.963000
0.28800  3.926100  4.918900
0.29000  4.148600  4.843500
0.29200  4.344300  4.724700
0.29400  4.506600  4.579800
0.29600  4.639000  4.423800
0.29800  4.731700  4.267300
0.30000  4.806500  4.127700
0.30200  4.858075  3.992176
0.30400  4.894200  3.872900
0.30600  4.919650  3.766925
0.30800  4.939200  3.671300
0.31000  4.961069  3.580869
0.31200  4.979700  3.499300
0.31400  4.989550  3.430562
0.31600  4.998800  3.368600
0.31800  5.016263  3.307050
0.32000  5.034500  3.250800
0.32200  5.047169  3.204312
0.32400  5.059800  3.162500
0.32600  5.076544  3.121206
0.32800  5.095200  3.082100
0.33000  5.114632  3.045218
0.33200  5.135800  3.011300
0.33400  5.159237  2.981631
0.33600  5.185100  2.954600
0.33800  5.213119  2.928700
0.34000  5.245100  2.904900
0.34200  5.283218  2.883962
0.34400  5.326100  2.865000
0.34600  5.371756  2.848194
0.34800  5.424200  2.831100
0.35000  5.487206  2.812456
0.35200  5.559500  2.788900
0.35400  5.641438  2.757369
0.35600  5.731900  2.715700
0.35800  5.830862  2.662350
0.36000  5.935400  2.592400
0.36200  6.046162  2.500607
0.36400  6.152400  2.386400
0.36600  6.245200  2.243737
0.36800  6.319700  2.083800
0.37000  6.367706  1.914081
0.37200  6.390300  1.739600
0.37400  6.384587  1.565893
0.37600  6.354300  1.398900
0.37800  6.298906  1.246700
0.38000  6.228300  1.108400
0.38200  6.152031  0.984000
0.38400  6.070600  0.878900
0.38600  5.982825  0.801419
0.38800  5.903300  0.742800
0.39000  5.857588  0.705688
0.39200  5.811600  0.664200
0.39400  5.729881  0.576688
0.39600  5.642100  0.493100
0.39800  5.569144  0.461594
0.40000  5.501900  0.445900
0.40200  5.437356  0.424194
0.40400  5.378100  0.401300
0.40600  5.325932  0.372225
0.40800  5.280200  0.344600
0.41000  5.242525  0.325969
0.41200  5.207900  0.311600
0.41400  5.171006  0.299444
0.41600  5.134400  0.289000
0.41800  5.098669  0.279381
0.42000  5.064400  0.269700
0.42200  5.040989  0.262542
0.42400  5.008550  0.254895
0.42600  4.970778  0.246797
0.42800  4.931363  0.238286
0.43000  4.894000  0.229400
0.43200  4.867241  0.219725
0.43400  4.844365  0.210271
0.43600  4.822995  0.202026
0.43800  4.801782  0.195115
0.44000  4.780400  0.188800
0.44200  4.756553  0.182549
0.44400  4.732524  0.176534
0.44600  4.709580  0.170622
0.44800  4.688106  0.164845
0.45000  4.667600  0.159400
0.45200  4.648096  0.154476
0.45400  4.629344  0.150032
0.45600  4.611197  0.146126
0.45800  4.593482  0.142763
0.46000  4.576000  0.139900
0.46200  4.558214  0.137881
0.46400  4.540693  0.135906
0.46600  4.523726  0.133295
0.46800  4.507459  0.129858
0.47000  4.491900  0.125900
0.47200  4.477483  0.121226
0.47400  4.463518  0.116433
0.47600  4.449437  0.112082
0.47800  4.435142  0.108303
0.48000  4.421000  0.104800
0.48200  4.407426  0.101427
0.48400  4.393955  0.098234
0.48600  4.380065  0.095197
0.48800  4.365906  0.092314
0.49000  4.352300  0.089600
0.49200  4.340659  0.087113
0.49400  4.329487  0.084750
0.49600  4.317804  0.082439
0.49800  4.305452  0.080150
0.50000  4.293100  0.077900
0.50200  4.281167  0.075620
0.50400  4.269559  0.073436
0.50600  4.258384  0.071460
0.50800  4.247676  0.069708
0.51000  4.237400  0.068100
0.51200  4.227590  0.066559
0.51400  4.218173  0.065150
0.51600  4.209057  0.063884
0.51800  4.200257  0.062788
0.52000  4.191900  0.061900
0.52200  4.184256  0.061286
0.52400  4.176964  0.060905
0.52600  4.170062  0.060946
0.52800  4.163193  0.061209
0.53000  4.155600  0.061100
0.53200  4.145327  0.059697
0.53400  4.134818  0.057730
0.53600  4.125937  0.055342
0.53800  4.118906  0.052799
0.54000  4.112300  0.050500
0.54200  4.104802  0.049258
0.54400  4.097344  0.048375
0.54600  4.090313  0.047527
0.54800  4.083759  0.046602
0.55000  4.077400  0.045700
0.55200  4.071048  0.044819
0.55400  4.064744  0.043942
0.55600  4.058427  0.043019
0.55800  4.052094  0.042074
0.56000  4.045800  0.041200
0.56200  4.039603  0.040554
0.56400  4.033457  0.039979
0.56600  4.027401  0.039401
0.56800  4.021371  0.038778
0.57000  4.015200  0.038100
0.57200  4.008717  0.037286
0.57400  4.001926  0.036431
0.57600  3.994518  0.035576
0.57800  3.986701  0.034756
0.58000  3.979200  0.034000
0.58200  3.973099  0.033407
0.58400  3.967546  0.032866
0.58600  3.962213  0.032289
0.58800  3.956954  0.031674
0.59000  3.951800  0.031100
0.59200  3.946599  0.030674
0.59400  3.941498  0.030289
0.59600  3.936617  0.029872
0.59800  3.931938  0.029420
0.60000  3.927300  0.029000
0.60200  3.922480  0.028711
0.60400  3.917676  0.028442
0.60600  3.912961  0.028108
0.60800  3.908391  0.027704
0.61000  3.904000  0.027300
0.61200  3.899827  0.026939
0.61400  3.895930  0.026630
0.61600  3.892473  0.026422
0.61800  3.889395  0.026305
0.62000  3.886400  0.026200
0.62200  3.883286  0.026013
0.62400  3.879923  0.025806
0.62600  3.875824  0.025590
0.62800  3.871168  0.025381
0.63000  3.866800  0.025200
0.63200  3.864067  0.025067
0.63400  3.861691  0.025002
0.63600  3.858961  0.025048
0.63800  3.855705  0.025200
0.64000  3.852300  0.025400
0.64200  3.848953  0.025678
0.64400  3.845538  0.025869
0.64600  3.841954  0.025823
0.64800  3.838265  0.025486
0.65000  3.834700  0.024900
0.65200  3.831643  0.023996
0.65400  3.828735  0.022900
0.65600  3.825828  0.021634
0.65800  3.822828  0.020305
0.66000  3.819700  0.019100
0.66200  3.816240  0.018313
0.66400  3.812684  0.017778
0.66600  3.809205  0.017513
0.66800  3.805822  0.017462
0.67000  3.802400  0.017500
0.67200  3.798636  0.017471
0.67400  3.795000  0.017430
0.67600  3.791905  0.017366
0.67800  3.789386  0.017263
0.68000  3.787100  0.017100
0.68200  3.784799  0.016801
0.68400  3.782533  0.016466
0.68600  3.780239  0.016158
0.68800  3.777890  0.015903
0.69000  3.775500  0.015700
0.69200  3.773056  0.015600
0.69400  3.770564  0.015532
0.69600  3.767995  0.015467
0.69800  3.765378  0.015370
0.70000  3.762800  0.015200
0.70200  3.760430  0.014794
0.70400  3.758085  0.014379
0.70600  3.755628  0.014143
0.70800  3.753056  0.014102
0.71000  3.750500  0.014100
0.71200  3.748035  0.014004
0.71400  3.745702  0.013876
0.71600  3.743618  0.013700
0.71800  3.741767  0.013492
0.72000  3.740000  0.013300
0.72200  3.738171  0.013201
0.72400  3.736330  0.013130
0.72600  3.734430  0.013060
0.72800  3.732493  0.012980
0.73000  3.730600  0.012900
0.73200  3.728977  0.012837
0.73400  3.727302  0.012754
0.73600  3.725289  0.012614
0.73800  3.722930  0.012417
0.74000  3.720500  0.012200
0.74200  3.718252  0.011983
0.74400  3.716068  0.011786
0.74600  3.713967  0.011655
0.74800  3.711930  0.011582
0.75000  3.709900  0.011500
0.75200  3.707810  0.011302
0.75400  3.705681  0.011095
0.75600  3.703466  0.010958
0.75800  3.701199  0.010889
0.76000  3.699000  0.010800
0.76200  3.697118  0.010563
0.76400  3.695259  0.010314
0.76600  3.693166  0.010147
0.76800  3.690853  0.010070
0.77000  3.688600  0.010000
0.77200  3.686768  0.009853
0.77400  3.685048  0.009686
0.77600  3.683267  0.009510
0.77800  3.681406  0.009341
0.78000  3.679600  0.009200
0.78200  3.677973  0.009163
0.78400  3.676438  0.009130
0.78600  3.674994  0.009019
0.78800  3.673603  0.008822
0.79000  3.672200  0.008600
0.79200  3.670649  0.008400
0.79400  3.669078  0.008200
0.79600  3.667575  0.007984
0.79800  3.666142  0.007768
0.80000  3.664700  0.007600
0.80200  3.663142  0.007568
0.80400  3.661575  0.007584
0.80600  3.660059  0.007619
0.80800  3.658610  0.007638
0.81000  3.657200  0.007600
0.81200  3.655895  0.007348
0.81400  3.654531  0.007096
0.81600  3.652781  0.007026
0.81800  3.650794  0.007149
0.82000  3.649200  0.007300
0.82200  3.649135  0.007325
0.82400  3.649393  0.007314
0.82600  3.649297  0.007278
0.82800  3.648602  0.007233
0.83000  3.647500  0.007200
0.83200  3.645703  0.007294
0.83400  3.643750  0.007331
0.83600  3.641914  0.007221
0.83800  3.640473  0.006874
0.84000  3.639700  0.006200
