; From SOPRA S.A. http://www.sopra-sa.com/indices.htm
; Filename    Symbol               Range (nm)     Description
; P_SIUD      Si                  240      840    Polysilicon (heavy As doped)
; lambda/um       n         k
0.24000  1.640300  3.437400
0.24200  1.648300  3.476300
0.24400  1.689700  3.496300
0.24600  1.730500  3.556300
0.24800  1.745000  3.606800
0.25000  1.794700  3.659500
0.25200  1.836700  3.701400
0.25400  1.878700  3.766100
0.25600  1.912000  3.817200
0.25800  1.969200  3.871100
0.26000  2.021100  3.936300
0.26200  2.085300  3.994300
0.26400  2.150000  4.060500
0.26600  2.230500  4.113200
0.26800  2.317500  4.177200
0.27000  2.391100  4.236300
0.27200  2.492700  4.286700
0.27400  2.607400  4.339500
0.27600  2.704300  4.387000
0.27800  2.822800  4.425700
0.28000  2.950400  4.457900
0.28200  3.078200  4.477000
0.28400  3.215700  4.489900
0.28600  3.345300  4.503500
0.28800  3.495100  4.492700
0.29000  3.631900  4.465300
0.29200  3.765600  4.435800
0.29400  3.888300  4.388700
0.29600  4.020200  4.334700
0.29800  4.124400  4.263100
0.30000  4.232900  4.199600
0.30200  4.324893  4.130569
0.30400  4.407500  4.056700
0.30600  4.482956  3.980206
0.30800  4.553500  3.903300
0.31000  4.624388  3.829225
0.31200  4.688800  3.757100
0.31400  4.739012  3.687187
0.31600  4.783000  3.619300
0.31800  4.826663  3.553088
0.32000  4.868500  3.489300
0.32200  4.908756  3.429631
0.32400  4.948100  3.370900
0.32600  4.987975  3.308362
0.32800  5.026300  3.248400
0.33000  5.060525  3.197968
0.33200  5.093500  3.150600
0.33400  5.127225  3.101706
0.33600  5.161700  3.052600
0.33800  5.197631  3.002331
0.34000  5.234900  2.953100
0.34200  5.273674  2.908519
0.34400  5.313800  2.863400
0.34600  5.355019  2.813226
0.34800  5.397800  2.759600
0.35000  5.443406  2.702137
0.35200  5.489200  2.642300
0.35400  5.532012  2.583562
0.35600  5.574700  2.519500
0.35800  5.621169  2.443000
0.36000  5.665100  2.359600
0.36200  5.700950  2.272776
0.36400  5.730300  2.181600
0.36600  5.753444  2.084131
0.36800  5.768700  1.986900
0.37000  5.773744  1.897750
0.37200  5.770800  1.810800
0.37400  5.760862  1.721393
0.37600  5.745300  1.633700
0.37800  5.726143  1.549856
0.38000  5.702400  1.471300
0.38200  5.672238  1.401244
0.38400  5.640200  1.336500
0.38600  5.611406  1.274550
0.38800  5.582300  1.216600
0.39000  5.550476  1.163357
0.39200  5.517600  1.113800
0.39400  5.484231  1.067062
0.39600  5.451300  1.023400
0.39800  5.420431  0.983038
0.40000  5.390100  0.945200
0.40200  5.358856  0.909063
0.40400  5.328100  0.875000
0.40600  5.298888  0.843244
0.40800  5.270800  0.813400
0.41000  5.243856  0.785331
0.41200  5.217800  0.758500
0.41400  5.192481  0.732263
0.41600  5.167600  0.706800
0.41800  5.142894  0.682087
0.42000  5.118100  0.658100
0.42200  5.118100  0.658100
0.42400  5.100908  0.638977
0.42600  5.076676  0.619547
0.42800  5.048220  0.600078
0.43000  5.018356  0.580839
0.43200  4.989900  0.562100
0.43400  4.969252  0.544655
0.43600  4.951548  0.527646
0.43800  4.935508  0.510316
0.44000  4.919852  0.492756
0.44200  4.903300  0.475900
0.44400  4.882690  0.460669
0.44600  4.860775  0.446698
0.44800  4.838940  0.433016
0.45000  4.817540  0.420684
0.45200  4.795900  0.412800
0.45400  4.770696  0.421513
0.45600  4.748548  0.427326
0.45800  4.737869  0.410158
0.46000  4.737157  0.371235
0.46200  4.735000  0.333100
0.46400  4.715760  0.322897
0.46600  4.692648  0.319810
0.46800  4.672160  0.315195
0.47000  4.655864  0.306585
0.47200  4.640400  0.297700
0.47400  4.624105  0.289839
0.47600  4.607727  0.282190
0.47800  4.591044  0.274700
0.48000  4.574240  0.267140
0.48200  4.557900  0.259100
0.48400  4.542570  0.249269
0.48600  4.528287  0.239451
0.48800  4.515578  0.230867
0.49000  4.504313  0.223922
0.49200  4.493700  0.218200
0.49400  4.483246  0.214315
0.49600  4.472561  0.210930
0.49800  4.460746  0.206869
0.50000  4.447857  0.201874
0.50200  4.434900  0.196600
0.50400  4.422894  0.191219
0.50600  4.411327  0.185987
0.50800  4.400240  0.181306
0.51000  4.389540  0.177237
0.51200  4.379000  0.173500
0.51400  4.368331  0.170049
0.51600  4.357650  0.166642
0.51800  4.346712  0.162986
0.52000  4.335736  0.159017
0.52200  4.325400  0.154900
0.52400  4.316802  0.150586
0.52600  4.308997  0.146343
0.52800  4.301816  0.142420
0.53000  4.294840  0.138900
0.53200  4.287400  0.135700
0.53400  4.277899  0.132831
0.53600  4.268050  0.130270
0.53800  4.259028  0.128098
0.54000  4.250978  0.126209
0.54200  4.243000  0.124300
0.54400  4.234215  0.121932
0.54600  4.225323  0.119404
0.54800  4.216605  0.116783
0.55000  4.208178  0.114131
0.55200  4.200000  0.111500
0.55400  4.192122  0.108927
0.55600  4.184556  0.106518
0.55800  4.177376  0.104406
0.56000  4.170560  0.102623
0.56200  4.164000  0.101100
0.56400  4.157705  0.099878
0.56600  4.151454  0.098807
0.56800  4.145012  0.097854
0.57000  4.138320  0.096873
0.57200  4.131500  0.095600
0.57400  4.124696  0.093512
0.57600  4.117700  0.091088
0.57800  4.110122  0.088482
0.58000  4.102160  0.085859
0.58200  4.094600  0.083400
0.58400  4.088559  0.081456
0.58600  4.083195  0.079816
0.58800  4.078290  0.078477
0.59000  4.073627  0.077378
0.59200  4.069000  0.076400
0.59400  4.063978  0.075370
0.59600  4.058819  0.074379
0.59800  4.053615  0.073455
0.60000  4.048351  0.072582
0.60200  4.042900  0.071700
0.60400  4.036981  0.070736
0.60600  4.030978  0.069724
0.60800  4.025146  0.068670
0.61000  4.019576  0.067569
0.61200  4.014200  0.066400
0.61400  4.009005  0.065084
0.61600  4.004062  0.063752
0.61800  3.999475  0.062494
0.62000  3.995230  0.061347
0.62200  3.991200  0.060300
0.62400  3.987409  0.059432
0.62600  3.983582  0.058612
0.62800  3.979231  0.057690
0.63000  3.974486  0.056687
0.63200  3.970100  0.055800
0.63400  3.967258  0.055294
0.63600  3.964807  0.054941
0.63800  3.962129  0.054646
0.64000  3.959022  0.054363
0.64200  3.955700  0.054100
0.64400  3.952182  0.053876
0.64600  3.948449  0.053588
0.64800  3.944479  0.053217
0.65000  3.940282  0.052654
0.65200  3.935900  0.051700
0.65400  3.931218  0.049766
0.65600  3.926561  0.047633
0.65800  3.922246  0.045817
0.66000  3.918329  0.044494
0.66200  3.914600  0.043500
0.66400  3.910838  0.042971
0.66600  3.907277  0.042638
0.66800  3.904244  0.042282
0.67000  3.901592  0.041839
0.67200  3.898700  0.041400
0.67400  3.894428  0.040999
0.67600  3.890012  0.040602
0.67800  3.886284  0.040175
0.68000  3.883372  0.039726
0.68200  3.880700  0.039300
0.68400  3.877893  0.038961
0.68600  3.875050  0.038650
0.68800  3.872090  0.038334
0.69000  3.868991  0.038007
0.69200  3.865800  0.037700
0.69400  3.862523  0.037475
0.69600  3.859185  0.037238
0.69800  3.855803  0.036907
0.70000  3.852398  0.036474
0.70200  3.849000  0.036000
0.70400  3.845639  0.035526
0.70600  3.842330  0.035043
0.70800  3.839113  0.034573
0.71000  3.835986  0.034106
0.71200  3.832900  0.033600
0.71400  3.829719  0.032969
0.71600  3.826655  0.032318
0.71800  3.823886  0.031719
0.72000  3.821441  0.031190
0.72200  3.819200  0.030700
0.72400  3.817108  0.030253
0.72600  3.815144  0.029818
0.72800  3.813266  0.029349
0.73000  3.811453  0.028854
0.73200  3.809700  0.028400
0.73400  3.808040  0.028082
0.73600  3.806364  0.027819
0.73800  3.804534  0.027562
0.74000  3.802561  0.027309
0.74200  3.800600  0.027100
0.74400  3.798892  0.026972
0.74600  3.797184  0.026908
0.74800  3.795271  0.026934
0.75000  3.793166  0.027023
0.75200  3.791100  0.027100
0.75400  3.789367  0.027062
0.75600  3.787718  0.026967
0.75800  3.786036  0.026827
0.76000  3.784284  0.026642
0.76200  3.782500  0.026400
0.76400  3.780762  0.026049
0.76600  3.778903  0.025678
0.76800  3.776756  0.025430
0.77000  3.774308  0.025251
0.77200  3.771700  0.024900
0.77400  3.768990  0.024027
0.77600  3.766255  0.022918
0.77800  3.763609  0.021590
0.78000  3.761079  0.020193
0.78200  3.758600  0.019000
0.78400  3.756069  0.018453
0.78600  3.753646  0.018270
0.78800  3.751448  0.018462
0.79000  3.749512  0.018917
0.79200  3.747800  0.019400
0.79400  3.746368  0.019538
0.79600  3.745096  0.019589
0.79800  3.743910  0.019656
0.80000  3.742757  0.019752
0.80200  3.741600  0.019800
0.80400  3.740395  0.019718
0.80600  3.739098  0.019581
0.80800  3.737576  0.019406
0.81000  3.735872  0.019227
0.81200  3.734200  0.019100
0.81400  3.732946  0.019158
0.81600  3.731685  0.019255
0.81800  3.729966  0.019291
0.82000  3.727909  0.019250
0.82200  3.726200  0.019200
0.82400  3.726011  0.019194
0.82600  3.726099  0.019197
0.82800  3.725740  0.019194
0.83000  3.724712  0.019187
0.83200  3.723300  0.019200
0.83400  3.721379  0.019267
0.83600  3.719318  0.019354
0.83800  3.717326  0.019446
0.84000  3.715617  0.019533
