; From SOPRA S.A. http://www.sopra-sa.com/indices.htm
; Filename    Symbol               Range (nm)     Description
; PBS         PbS                 199     2479    Lead Sulfide
; lambda/um       n         k
0.19998  1.130000  1.700000
0.20160  1.160757  1.713342
0.20325  1.183727  1.726683
0.20493  1.200023  1.740023
0.20664  1.210759  1.753364
0.20838  1.217089  1.766744
0.21014  1.219951  1.779990
0.21194  1.220253  1.792899
0.21377  1.219673  1.806077
0.21563  1.220171  1.820158
0.21752  1.223488  1.835649
0.21944  1.229679  1.852274
0.22140  1.240607  1.870228
0.22340  1.257197  1.889533
0.22543  1.277574  1.909706
0.22750  1.300062  1.930051
0.22960  1.323418  1.950178
0.23175  1.347222  1.970108
0.23393  1.369661  1.990492
0.23616  1.390296  2.011237
0.23843  1.409814  2.031674
0.24075  1.431384  2.049397
0.24311  1.455103  2.064214
0.24552  1.479189  2.077263
0.24797  1.499011  2.090213
0.25048  1.513560  2.104233
0.25303  1.523365  2.120460
0.25564  1.530308  2.141082
0.25830  1.535133  2.166517
0.26102  1.538300  2.196623
0.26380  1.540003  2.230786
0.26663  1.540735  2.268314
0.26953  1.540665  2.308574
0.27249  1.539009  2.351173
0.27552  1.536696  2.395422
0.27862  1.536106  2.439258
0.28178  1.541998  2.478218
0.28502  1.555290  2.512217
0.28834  1.575526  2.545060
0.29173  1.600709  2.584374
0.29520  1.629861  2.632578
0.29876  1.659946  2.686035
0.30240  1.687293  2.737973
0.30614  1.711332  2.785465
0.30996  1.737523  2.832176
0.31389  1.772924  2.883456
0.31791  1.822708  2.942190
0.32204  1.889454  3.009748
0.32628  1.974648  3.086122
0.33063  2.078836  3.170839
0.33510  2.200050  3.250861
0.33969  2.335586  3.314617
0.34440  2.482348  3.350296
0.34925  2.633406  3.367484
0.35424  2.782469  3.374288
0.35938  2.923223  3.380421
0.36466  3.053079  3.379351
0.37011  3.170108  3.365759
0.37571  3.273472  3.334024
0.38149  3.369927  3.291107
0.38745  3.466829  3.244049
0.39360  3.571004  3.198195
0.39995  3.681792  3.143993
0.40651  3.797623  3.069280
0.41328  3.914747  2.965897
0.42029  4.025058  2.840669
0.42754  4.115867  2.705846
0.43504  4.180344  2.571944
0.44280  4.222263  2.444687
0.45086  4.254369  2.331387
0.45920  4.283469  2.234668
0.46787  4.310027  2.152733
0.47687  4.330346  2.073388
0.48622  4.343352  1.991778
0.49594  4.349502  1.907683
0.50606  4.349059  1.825656
0.51660  4.342818  1.748320
0.52760  4.332042  1.678023
0.53907  4.319899  1.620754
0.55105  4.308077  1.578399
0.56357  4.297541  1.550302
0.57668  4.287198  1.529764
0.59041  4.279026  1.513560
0.60481  4.278185  1.498128
0.61993  4.297949  1.477941
0.63582  4.342639  1.449091
0.65255  4.407166  1.408431
0.67019  4.470799  1.353609
0.68881  4.526126  1.282308
0.70849  4.569008  1.199290
0.72932  4.599693  1.117023
0.75143  4.613894  1.040942
0.77491  4.612091  0.974962
0.79990  4.597536  0.921484
0.82657  4.569341  0.887800
0.85507  4.534009  0.861246
0.88561  4.500512  0.822270
0.91841  4.477665  0.753496
0.95373  4.459386  0.671773
0.99188  4.437383  0.599035
1.03321  4.405819  0.551319
1.07813  4.370868  0.517698
1.12714  4.338195  0.488390
1.18081  4.310139  0.461103
1.23985  4.291269  0.429142
1.30511  4.279757  0.397716
1.37761  4.264161  0.391465
1.45865  4.253906  0.378644
1.54981  4.244765  0.363657
1.65314  4.236651  0.347745
1.77122  4.234562  0.336001
1.90746  4.240000  0.318000
2.06642  4.246292  0.306921
2.25428  4.256830  0.277446
2.47970  4.296217  0.239628
