; From SOPRA S.A. http://www.sopra-sa.com/indices.htm
; Filename    Symbol               Range (nm)     Description
; PD2SI-B     Pd2Si               177    12398    Palladium Silicide (parallel to c axis)
; lambda/um       n         k
0.17712  1.336000  1.095000
0.17969  1.325000  1.138000
0.18233  1.333000  1.160000
0.18505  1.342000  1.185000
0.18786  1.351000  1.210000
0.19075  1.358000  1.229000
0.19373  1.368000  1.235000
0.19680  1.371000  1.272000
0.19998  1.385000  1.279000
0.20325  1.387000  1.286000
0.20664  1.387000  1.310000
0.21014  1.385000  1.330000
0.21377  1.398000  1.377000
0.21752  1.421000  1.387000
0.22140  1.430000  1.402000
0.22543  1.431000  1.426000
0.22960  1.438000  1.443000
0.23393  1.441000  1.464000
0.23843  1.445000  1.494000
0.24311  1.448000  1.515000
0.24797  1.453000  1.559000
0.25303  1.449000  1.578000
0.25830  1.455000  1.664000
0.26380  1.496000  1.663000
0.26953  1.507000  1.705000
0.27552  1.518000  1.688000
0.28178  1.505000  1.768000
0.28834  1.533000  1.818000
0.29520  1.543000  1.855000
0.30240  1.574000  1.911000
0.30996  1.607000  1.952000
0.31791  1.643000  1.993000
0.32628  1.679000  2.028000
0.33510  1.703000  2.062000
0.34440  1.728000  2.092000
0.35424  1.755000  2.126000
0.36466  1.778000  2.171000
0.37571  1.792000  2.223000
0.38745  1.797000  2.277000
0.39995  1.815000  2.364000
0.41328  1.867000  2.479000
0.42754  1.956000  2.569000
0.44280  2.039000  2.626000
0.45920  2.115000  2.673000
0.47687  2.193000  2.708000
0.49594  2.254000  2.742000
0.51660  2.296000  2.786000
0.53907  2.338000  2.854000
0.56357  2.384000  2.944000
0.59041  2.451000  3.051000
0.61993  2.564000  3.173000
0.65255  2.728000  3.276000
0.68881  2.884000  3.338000
0.72932  3.064000  3.347000
0.77491  3.199000  3.313000
0.82657  3.278000  3.284000
0.88561  3.343000  3.223000
0.95373  3.272000  3.107000
1.03321  3.053000  3.055000
1.12714  2.700000  3.313000
1.23985  2.427000  3.955000
1.37761  2.376000  4.685000
1.54981  2.422000  5.402000
1.77122  2.612000  6.208000
2.06642  2.990000  7.207000
2.47970  3.245000  8.396000
3.09963  3.742000  10.599000
4.13284  4.450000  13.720000
6.19926  5.916000  20.052000
12.39852  8.475000  30.757000
