; From SOPRA S.A. http://www.sopra-sa.com/indices.htm
; Filename    Symbol               Range (nm)     Description
; PD2SI-A     Pd2Si               177    12398    Palladium Silicide (perpendicular to c axis)
; lambda/um       n         k
0.17712  1.075000  1.115000
0.17969  1.072000  1.136000
0.18233  1.064000  1.178000
0.18505  1.072000  1.228000
0.18786  1.095000  1.260000
0.19075  1.113000  1.288000
0.19373  1.145000  1.323000
0.19680  1.172000  1.347000
0.19998  1.188000  1.362000
0.20325  1.203000  1.378000
0.20664  1.219000  1.394000
0.21014  1.234000  1.409000
0.21377  1.245000  1.430000
0.21752  1.255000  1.450000
0.22140  1.262000  1.463000
0.22543  1.278000  1.497000
0.22960  1.291000  1.525000
0.23393  1.304000  1.544000
0.23843  1.324000  1.573000
0.24311  1.332000  1.588000
0.24797  1.344000  1.612000
0.25303  1.360000  1.644000
0.25830  1.364000  1.661000
0.26380  1.369000  1.709000
0.26953  1.388000  1.721000
0.27552  1.394000  1.767000
0.28178  1.417000  1.796000
0.28834  1.437000  1.827000
0.29520  1.443000  1.866000
0.30240  1.461000  1.887000
0.30996  1.461000  1.929000
0.31791  1.473000  1.980000
0.32628  1.495000  2.034000
0.33510  1.505000  2.080000
0.34440  1.519000  2.125000
0.35424  1.537000  2.195000
0.36466  1.570000  2.274000
0.37571  1.606000  2.361000
0.38745  1.642000  2.425000
0.39995  1.687000  2.509000
0.41328  1.749000  2.603000
0.42754  1.826000  2.695000
0.44280  1.900000  2.771000
0.45920  1.978000  2.851000
0.47687  2.088000  2.930000
0.49594  2.210000  3.000000
0.51660  2.336000  3.042000
0.53907  2.463000  3.061000
0.56357  2.567000  3.049000
0.59041  2.633000  3.050000
0.61993  2.674000  3.072000
0.65255  2.725000  3.124000
0.68881  2.765000  3.182000
0.72932  2.823000  3.264000
0.77491  2.877000  3.363000
0.82657  2.935000  3.465000
0.88561  3.044000  3.591000
0.95373  3.091000  3.705000
1.03321  3.130000  3.883000
1.12714  3.217000  4.099000
1.23985  3.331000  4.459000
1.37761  3.520000  4.952000
1.54981  3.748000  5.141000
1.77122  3.944000  5.535000
2.06642  4.005000  6.072000
2.47970  4.122000  7.019000
3.09963  4.530000  8.917000
4.13284  5.172000  11.392000
6.19926  6.557000  16.442000
12.39852  8.954000  24.987000
