; From SOPRA S.A. http://www.sopra-sa.com/indices.htm
; Filename    Symbol               Range (nm)     Description
; RESIGE0     Si0.89Ge0.11        163     2479    Silicon Germanium alloy (relaxed, 11% Ge)   *
; lambda/um       n         k
0.16314  0.525120  2.167840
0.16422  0.543840  2.183280
0.16531  0.560000  2.200000
0.16642  0.573960  2.217920
0.16755  0.586080  2.236960
0.16869  0.596720  2.257040
0.16984  0.606240  2.278080
0.17101  0.615001  2.300000
0.17220  0.623357  2.322721
0.17341  0.631625  2.346176
0.17463  0.640275  2.370253
0.17587  0.649630  2.394884
0.17712  0.660451  2.419872
0.17840  0.673953  2.444885
0.17969  0.689094  2.470256
0.18100  0.705380  2.496121
0.18233  0.722385  2.522736
0.18368  0.739451  2.550475
0.18505  0.756779  2.579117
0.18644  0.774240  2.608658
0.18786  0.792171  2.638823
0.18929  0.810806  2.669346
0.19075  0.830316  2.700197
0.19223  0.851112  2.731505
0.19373  0.872712  2.762529
0.19525  0.894952  2.793126
0.19680  0.917295  2.821631
0.19838  0.939006  2.845601
0.19998  0.960517  2.867233
0.20160  0.981745  2.886653
0.20325  1.003498  2.907632
0.20493  1.028073  2.938171
0.20664  1.050912  2.965698
0.20838  1.064690  2.972569
0.21014  1.080000  2.982000
0.21194  1.103579  3.008448
0.21377  1.133000  3.045000
0.21563  1.158955  3.079125
0.21752  1.180000  3.112000
0.21944  1.217161  3.159312
0.22140  1.247000  3.206000
0.22340  1.289051  3.254781
0.22543  1.340000  3.302000
0.22750  1.402614  3.343570
0.22960  1.471000  3.366000
0.23175  1.537413  3.366401
0.23393  1.579000  3.353000
0.23616  1.590749  3.343995
0.23843  1.589000  3.354000
0.24075  1.580022  3.383210
0.24311  1.571000  3.429000
0.24552  1.567983  3.490077
0.24797  1.570000  3.565000
0.25048  1.581045  3.651376
0.25303  1.597000  3.749000
0.25564  1.623884  3.857617
0.25830  1.658000  3.979000
0.26102  1.702027  4.117295
0.26380  1.764000  4.278000
0.26663  1.851998  4.466215
0.26953  1.988000  4.678000
0.27249  2.186513  4.892239
0.27552  2.451000  5.082000
0.27862  2.892294  5.281468
0.28178  3.120000  5.344000
0.28502  3.534014  5.428398
0.28834  4.086000  5.395000
0.29173  4.608162  5.078382
0.29520  4.888000  4.639000
0.29876  4.990294  4.267797
0.30240  5.020000  3.979000
0.30614  5.018571  3.758224
0.30996  5.010000  3.587000
0.31389  5.010277  3.452616
0.31791  5.016000  3.346000
0.32204  5.033733  3.258423
0.32628  5.064888  3.182000
0.33063  5.105687  3.115204
0.33510  5.156000  3.058000
0.33969  5.216893  3.013884
0.34440  5.296000  2.987000
0.34925  5.409979  2.987062
0.35424  5.610000  3.014000
0.35938  5.987875  3.008625
0.36466  6.522000  2.705000
0.37011  6.820688  2.019875
0.37571  6.617333  1.440284
0.38149  6.382950  0.875698
0.38745  6.126192  0.655312
0.39360  5.783498  0.476330
0.39995  5.582191  0.365785
0.40651  5.384000  0.321000
0.41328  5.218264  0.264524
0.42029  5.079200  0.227505
0.42754  4.959871  0.202924
0.43504  4.850717  0.181375
0.44280  4.752670  0.163002
0.45086  4.663788  0.144502
0.45920  4.583127  0.126816
0.46787  4.509390  0.109161
0.47687  4.441684  0.093405
0.48622  4.378793  0.081585
0.49594  4.320386  0.072415
0.50606  4.265778  0.065860
0.51660  4.214820  0.060212
0.52760  4.167254  0.053338
0.53907  4.122729  0.046486
0.55105  4.080843  0.040000
0.56357  4.041477  0.034458
0.57668  4.004451  0.030996
0.59041  3.969536  0.028284
0.60481  3.936492  0.025244
0.61993  3.905178  0.022261
0.63582  3.875276  0.019251
0.65255  3.847076  0.016546
0.67019  3.820805  0.014566
0.68881  3.796337  0.012971
0.70849  3.773779  0.011601
0.72932  3.752665  0.010342
0.75143  3.732943  0.008983
0.77491  3.713478  0.007656
0.79990  3.692756  0.006385
0.82657  3.671862  0.005288
0.85507  3.650779  0.004549
0.88561  3.631298  0.003987
0.91841  3.616072  0.003487
0.95373  3.602500  0.003033
0.99188  3.588737  0.002518
1.03321  3.575166  0.002101
1.07813  3.561502  0.002013
1.12714  3.547893  0.001926
1.18081  3.534215  0.001512
1.23985  3.520992  0.000999
1.30511  3.508805  0.000458
1.37761  3.497361  0.000031
1.45865  3.486467  0.000019
1.54981  3.476412  0.000010
1.65314  3.467422  0.000004
1.77122  3.459500  0.000001
1.90746  3.452707  0.000000
2.06642  3.447100  0.000000
2.25428  3.445190  0.000000
2.47970  3.442753  0.000000
