; From SOPRA S.A. http://www.sopra-sa.com/indices.htm
; Filename    Symbol               Range (nm)     Description
; RESIGE1     Ge                  163     2479    Silicon Germanium alloy (relaxed, 100% Ge)
; lambda/um       n         k
0.20664  1.023000  2.774000
0.20838  1.062500  2.802250
0.21014  1.108000  2.831000
0.21194  1.157500  2.856000
0.21377  1.209000  2.873000
0.21563  1.262688  2.873375
0.21752  1.310000  2.866000
0.21944  1.340062  2.855812
0.22140  1.360000  2.846000
0.22340  1.372937  2.842000
0.22543  1.380000  2.842000
0.22750  1.383500  2.845062
0.22960  1.383000  2.854000
0.23175  1.377625  2.871500
0.23393  1.371000  2.897000
0.23616  1.366375  2.931438
0.23843  1.364000  2.973000
0.24075  1.365062  3.020000
0.24311  1.370000  3.073000
0.24552  1.379812  3.132187
0.24797  1.394000  3.197000
0.25048  1.412063  3.266813
0.25303  1.435000  3.342000
0.25564  1.463563  3.422063
0.25830  1.498000  3.509000
0.26102  1.537563  3.603750
0.26380  1.586000  3.709000
0.26663  1.643937  3.825937
0.26953  1.720000  3.960000
0.27249  1.809687  4.120937
0.27552  1.953000  4.297000
0.27862  2.197689  4.514188
0.28178  2.516000  4.669000
0.28502  2.936752  4.642375
0.28834  3.338000  4.507000
0.29173  3.585125  4.272563
0.29520  3.745000  4.009000
0.29876  3.830187  3.797751
0.30240  3.869000  3.614000
0.30614  3.893812  3.462751
0.30996  3.905000  3.336000
0.31389  3.913750  3.228563
0.31791  3.920000  3.137000
0.32204  3.927562  3.056750
0.32628  3.936000  2.986000
0.33063  3.946312  2.921562
0.33510  3.958000  2.863000
0.33969  3.970687  2.809062
0.34440  3.985000  2.759000
0.34925  4.001062  2.712000
0.35424  4.020000  2.667000
0.35938  4.043563  2.624125
0.36466  4.070000  2.579000
0.37011  4.100312  2.526562
0.37571  4.128000  2.469000
0.38149  4.147125  2.405437
0.38745  4.157000  2.340000
0.39360  4.154500  2.273813
0.39995  4.141000  2.215000
0.40651  4.113312  2.172500
0.41328  4.082000  2.145000
0.42029  4.055938  2.135563
0.42754  4.037000  2.140000
0.43504  4.030250  2.156500
0.44280  4.035000  2.181000
0.45086  4.052250  2.208750
0.45920  4.082000  2.240000
0.46787  4.123937  2.273500
0.47687  4.180000  2.309000
0.48622  4.249250  2.346375
0.49594  4.340000  2.384000
0.50606  4.456750  2.432750
0.51660  4.610000  2.455000
0.52760  4.839063  2.407750
0.53907  5.062000  2.318000
0.55105  5.171687  2.200875
0.56357  5.283000  2.049000
0.57668  5.539312  1.868500
0.59041  5.748000  1.634000
0.60481  5.715437  1.276000
0.61993  5.588000  0.933000
0.63582  5.445188  0.750313
0.65255  5.294000  0.638000
0.67019  5.172750  0.556750
0.68881  5.067000  0.500000
0.70849  4.976187  0.445375
0.72932  4.897000  0.401000
0.75143  4.826250  0.369750
0.77491  4.763000  0.345000
0.79990  4.705437  0.324750
0.82657  4.653000  0.298000
0.85507  4.603687  0.242500
0.88561  4.560000  0.190000
0.91841  4.526375  0.174500
0.95373  4.495000  0.167000
0.99188  4.455625  0.144813
1.03321  4.420000  0.123000
1.07813  4.401563  0.111631
1.12714  4.385000  0.103000
1.18081  4.355312  0.091100
1.23985  4.325000  0.080900
1.30511  4.301875  0.080621
1.37761  4.285000  0.074500
1.45865  4.283437  0.040022
1.54981  4.275000  0.005670
1.65314  4.231625  0.001309
1.77122  4.180000  0.000280
1.90746  4.133125  0.003147
2.06642  4.104000  0.000000
2.25428  4.086000  0.000000
2.47970  4.074000  0.000000
