; From SOPRA S.A. http://www.sopra-sa.com/indices.htm
; Filename    Symbol               Range (nm)     Description
; RINGAS24    In0.24Ga0.76As      206     2479    Indium Gallium Arsenide (relaxed, 24% In)
; lambda/um       n         k
0.24797  2.073500  3.721100
0.24859  2.129618  3.736937
0.24922  2.173000  3.763300
0.24984  2.210455  3.793462
0.25048  2.248800  3.820700
0.25111  2.300625  3.830787
0.25175  2.355400  3.839500
0.25239  2.403382  3.863232
0.25303  2.454800  3.885900
0.25368  2.521414  3.893694
0.25433  2.588900  3.896200
0.25498  2.642949  3.899737
0.25564  2.695300  3.900300
0.25630  2.754361  3.894956
0.25696  2.815800  3.886800
0.25763  2.878931  3.880125
0.25830  2.941200  3.868400
0.25898  2.998645  3.842662
0.25965  3.054800  3.814500
0.26034  3.113039  3.796056
0.26102  3.169900  3.776700
0.26171  3.223262  3.748332
0.26240  3.272500  3.715500
0.26310  3.313774  3.679120
0.26380  3.354600  3.642000
0.26450  3.404281  3.608938
0.26521  3.453600  3.574900
0.26592  3.495626  3.534868
0.26663  3.532800  3.493600
0.26735  3.564719  3.454574
0.26808  3.593000  3.416600
0.26880  3.618331  3.380876
0.26953  3.643100  3.343700
0.27027  3.671218  3.299814
0.27101  3.698800  3.255100
0.27175  3.723244  3.214306
0.27249  3.744600  3.175600
0.27325  3.760850  3.139168
0.27400  3.775600  3.103700
0.27476  3.791532  3.068118
0.27552  3.809400  3.031900
0.27629  3.832050  2.993782
0.27706  3.855900  2.954900
0.27784  3.880000  2.916076
0.27862  3.899300  2.877000
0.27940  3.905069  2.838013
0.28019  3.907400  2.798000
0.28099  3.914994  2.755655
0.28178  3.923300  2.711900
0.28259  3.931094  2.666268
0.28339  3.937100  2.621600
0.28421  3.939562  2.580932
0.28502  3.938700  2.543200
0.28584  3.933075  2.509307
0.28667  3.925900  2.476400
0.28750  3.920856  2.441075
0.28834  3.915100  2.405900
0.28918  3.906187  2.371931
0.29002  3.896600  2.340300
0.29087  3.888844  2.313306
0.29173  3.880400  2.288500
0.29259  3.868456  2.264076
0.29346  3.856400  2.240400
0.29433  3.848006  2.217232
0.29520  3.839300  2.194600
0.29608  3.826481  2.172125
0.29697  3.812800  2.150800
0.29786  3.800643  2.131950
0.29876  3.788800  2.114200
0.29966  3.776400  2.096162
0.30057  3.764800  2.079200
0.30148  3.756069  2.065444
0.30240  3.747200  2.051200
0.30333  3.734863  2.030975
0.30426  3.722100  2.012300
0.30519  3.711119  2.003406
0.30614  3.701100  1.996700
0.30708  3.692437  1.986006
0.30804  3.683700  1.975300
0.30900  3.673206  1.967387
0.30996  3.662100  1.959600
0.31093  3.650169  1.949406
0.31191  3.639800  1.939200
0.31290  3.635250  1.930706
0.31389  3.630700  1.923400
0.31488  3.619831  1.917538
0.31589  3.608400  1.912500
0.31690  3.601131  1.907812
0.31791  3.594800  1.903300
0.31893  3.587481  1.898375
0.31996  3.580000  1.893800
0.32100  3.572088  1.890631
0.32204  3.565100  1.887400
0.32309  3.561350  1.882200
0.32414  3.557700  1.877400
0.32521  3.550681  1.875756
0.32628  3.543600  1.874200
0.32735  3.539313  1.869150
0.32844  3.535700  1.864900
0.32953  3.531256  1.866206
0.33063  3.527000  1.868100
0.33173  3.523556  1.866200
0.33285  3.520600  1.863500
0.33397  3.517913  1.861450
0.33510  3.515800  1.860300
0.33623  3.514838  1.861381
0.33737  3.514000  1.862900
0.33853  3.512275  1.863000
0.33969  3.510200  1.863200
0.34085  3.507819  1.864925
0.34203  3.505600  1.866600
0.34321  3.503806  1.866406
0.34440  3.503100  1.866500
0.34560  3.504944  1.869200
0.34681  3.507200  1.872200
0.34803  3.507638  1.873388
0.34925  3.508000  1.874500
0.35049  3.509850  1.876944
0.35173  3.511500  1.879600
0.35298  3.510706  1.881575
0.35424  3.510700  1.883600
0.35551  3.515131  1.885950
0.35679  3.520500  1.889100
0.35808  3.523687  1.894269
0.35938  3.527200  1.899500
0.36068  3.533475  1.902831
0.36200  3.539600  1.905500
0.36333  3.542506  1.907700
0.36466  3.545100  1.910600
0.36601  3.549294  1.916219
0.36736  3.555000  1.922200
0.36873  3.563650  1.926331
0.37011  3.572600  1.930200
0.37149  3.578675  1.934987
0.37289  3.584900  1.939700
0.37429  3.593900  1.943150
0.37571  3.603700  1.947100
0.37714  3.612856  1.954025
0.37858  3.622400  1.960600
0.38003  3.632825  1.962875
0.38149  3.644300  1.965200
0.38297  3.657450  1.971531
0.38445  3.671400  1.979100
0.38595  3.685306  1.987012
0.38745  3.699700  1.993600
0.38897  3.714519  1.995225
0.39050  3.730700  1.996900
0.39205  3.749763  2.003819
0.39360  3.769900  2.011800
0.39517  3.789088  2.018281
0.39675  3.809500  2.023600
0.39835  3.832837  2.026363
0.39995  3.858500  2.029200
0.40157  3.886462  2.035725
0.40320  3.916700  2.041600
0.40485  3.949481  2.043313
0.40651  3.983900  2.042000
0.40818  4.018913  2.037406
0.40987  4.055200  2.030200
0.41157  4.094306  2.021431
0.41328  4.132600  2.009700
0.41501  4.165425  1.993594
0.41676  4.197400  1.974200
0.41852  4.233619  1.951638
0.42029  4.268000  1.927400
0.42208  4.294682  1.902919
0.42388  4.318100  1.878500
0.42570  4.341394  1.854962
0.42754  4.362600  1.832200
0.42939  4.378900  1.810206
0.43125  4.396000  1.789500
0.43314  4.420769  1.771325
0.43504  4.446900  1.753500
0.43695  4.468806  1.733675
0.43889  4.491200  1.713600
0.44084  4.516888  1.695313
0.44280  4.546000  1.675600
0.44479  4.579650  1.652256
0.44679  4.617700  1.624300
0.44882  4.664163  1.589831
0.45086  4.707700  1.549400
0.45291  4.734768  1.503181
0.45499  4.756000  1.450400
0.45709  4.780056  1.388169
0.45920  4.799300  1.323000
0.46134  4.807931  1.261637
0.46350  4.809100  1.200500
0.46567  4.804268  1.136112
0.46787  4.792700  1.074900
0.47009  4.772356  1.023950
0.47232  4.748600  0.977800
0.47458  4.726812  0.932944
0.47687  4.704900  0.890600
0.47917  4.683250  0.850482
0.48150  4.659800  0.813600
0.48384  4.630731  0.781506
0.48622  4.601700  0.752300
0.48861  4.578669  0.724306
0.49103  4.556900  0.698400
0.49347  4.532819  0.675138
0.49594  4.508900  0.653800
0.49843  4.486719  0.634256
0.50095  4.465400  0.615300
0.50349  4.444663  0.594863
0.50606  4.424300  0.575400
0.50866  4.403875  0.559269
0.51128  4.383800  0.544700
0.51393  4.364425  0.530587
0.51660  4.345500  0.517300
0.51931  4.326675  0.504969
0.52204  4.308600  0.493200
0.52480  4.292337  0.481531
0.52760  4.276300  0.470300
0.53042  4.258756  0.459763
0.53327  4.241200  0.449700
0.53615  4.224781  0.439869
0.53907  4.208800  0.430600
0.54201  4.192725  0.422362
0.54499  4.177200  0.414500
0.54800  4.162868  0.406244
0.55105  4.149200  0.398400
0.55412  4.135938  0.391925
0.55724  4.122900  0.385600
0.56039  4.109669  0.378138
0.56357  4.096700  0.370700
0.56679  4.084563  0.364269
0.57005  4.072500  0.358100
0.57334  4.059612  0.351606
0.57668  4.046900  0.345300
0.58005  4.035200  0.339544
0.58346  4.024100  0.334200
0.58691  4.013644  0.329350
0.59041  4.003300  0.324700
0.59394  3.992207  0.319919
0.59752  3.981400  0.315200
0.60114  3.972000  0.310581
0.60481  3.962900  0.306200
0.60852  3.953137  0.302313
0.61227  3.943400  0.298600
0.61608  3.934088  0.294856
0.61993  3.925100  0.291000
0.62382  3.916506  0.286700
0.62777  3.908200  0.282500
0.63177  3.900181  0.279081
0.63582  3.892200  0.275700
0.63992  3.883825  0.271600
0.64408  3.875600  0.267500
0.64829  3.868006  0.263894
0.65255  3.860800  0.260700
0.65688  3.853975  0.258106
0.66125  3.847300  0.255800
0.66569  3.840494  0.253788
0.67019  3.833700  0.251300
0.67475  3.826962  0.246925
0.67937  3.820300  0.242600
0.68406  3.813781  0.240338
0.68881  3.807300  0.238500
0.69362  3.800562  0.235894
0.69851  3.794200  0.233200
0.70346  3.789075  0.230781
0.70849  3.784200  0.228400
0.71358  3.778669  0.225894
0.71875  3.773100  0.223400
0.72400  3.767744  0.221331
0.72932  3.762800  0.218700
0.73473  3.759032  0.213938
0.74021  3.755000  0.209200
0.74578  3.748937  0.206625
0.75143  3.742600  0.204700
0.75716  3.737331  0.202563
0.76299  3.732600  0.200400
0.76890  3.728231  0.197975
0.77491  3.724500  0.195700
0.78101  3.721869  0.194244
0.78721  3.719600  0.192600
0.79351  3.717100  0.189869
0.79990  3.714400  0.186400
0.80641  3.711381  0.182063
0.81302  3.707900  0.177400
0.81974  3.703819  0.172788
0.82657  3.699000  0.168600
