; From SOPRA S.A. http://www.sopra-sa.com/indices.htm
; Filename    Symbol               Range (nm)     Description
; RINGAS20    In0.2Ga0.8As        206     2479    Indium Gallium Arsenide (relaxed, 20% In)
; lambda/um       n         k
0.24311  1.847613  3.494343
0.24471  1.912470  3.553809
0.24633  1.988975  3.649838
0.24797  2.089240  3.712915
0.24963  2.212756  3.778154
0.25132  2.351055  3.824667
0.25303  2.544662  3.873950
0.25476  2.674857  3.873193
0.25652  2.844210  3.871026
0.25830  3.017485  3.839005
0.26011  3.169271  3.773426
0.26194  3.293692  3.683246
0.26380  3.411868  3.606297
0.26568  3.509760  3.517876
0.26759  3.616750  3.405322
0.26953  3.675912  3.302543
0.27150  3.740808  3.191032
0.27350  3.810452  3.093898
0.27552  3.849050  2.988204
0.27758  3.892202  2.882639
0.27967  3.914889  2.789470
0.28178  3.956971  2.665167
0.28394  3.952104  2.560036
0.28612  3.934706  2.457928
0.28834  3.921370  2.362658
0.29059  3.879885  2.300452
0.29288  3.856384  2.217774
0.29520  3.823895  2.165386
0.29756  3.798265  2.119445
0.29996  3.764182  2.068614
0.30240  3.724310  2.033115
0.30488  3.702925  1.997469
0.30740  3.677935  1.969638
0.30996  3.659826  1.945602
0.31257  3.622796  1.920526
0.31522  3.605214  1.908709
0.31791  3.582046  1.889363
0.32065  3.570711  1.884310
0.32344  3.551170  1.875459
0.32628  3.535704  1.867894
0.32916  3.520603  1.866613
0.33210  3.517899  1.864427
0.33510  3.508261  1.864841
0.33814  3.508935  1.872646
0.34124  3.493985  1.873320
0.34440  3.496043  1.871665
0.34762  3.504462  1.880019
0.35090  3.503032  1.884385
0.35424  3.516909  1.891833
0.35765  3.519466  1.902591
0.36112  3.530983  1.913604
0.36466  3.545264  1.924996
0.36827  3.565689  1.939606
0.37196  3.586418  1.950007
0.37571  3.608687  1.963842
0.37955  3.635336  1.982621
0.38346  3.670506  1.997844
0.38745  3.709995  2.011487
0.39153  3.751635  2.036402
0.39570  3.812966  2.049739
0.39995  3.881438  2.070187
0.40430  3.968481  2.067523
0.40874  4.066421  2.068911
0.41328  4.163185  2.021405
0.41793  4.249878  1.965974
0.42268  4.314518  1.906305
0.42754  4.376040  1.841439
0.43251  4.421916  1.795609
0.43759  4.498009  1.751994
0.44280  4.588894  1.695845
0.44814  4.694535  1.592484
0.45360  4.791392  1.448981
0.45920  4.826437  1.276052
0.46494  4.813909  1.106663
0.47083  4.762232  0.964079
0.47687  4.693699  0.854831
0.48306  4.629906  0.769599
0.48942  4.566584  0.694167
0.49594  4.499486  0.635440
0.50264  4.445271  0.586035
0.50953  4.387867  0.545316
0.51660  4.338896  0.507526
0.52388  4.292183  0.477371
0.53137  4.247584  0.447584
0.53907  4.205887  0.424053
0.54699  4.167811  0.405440
0.55516  4.128901  0.385721
0.56357  4.094414  0.369161
0.57224  4.058340  0.352715
0.58118  4.029260  0.339000
0.59041  4.002672  0.326110
0.59993  3.975178  0.312961
0.60976  3.949305  0.301464
0.61993  3.922560  0.290568
0.63043  3.899282  0.281520
0.64130  3.878164  0.275446
0.65255  3.859247  0.267136
0.66421  3.839435  0.257000
0.67628  3.821543  0.246235
0.68881  3.802652  0.242279
0.70180  3.786705  0.238552
0.71530  3.770233  0.232328
0.72932  3.761965  0.220648
0.74391  3.749538  0.212281
0.75909  3.731321  0.207162
0.77491  3.722816  0.207364
0.79139  3.716595  0.200296
0.80860  3.712228  0.186360
0.82657  3.703722  0.170257
0.84535  3.683151  0.149160
0.86501  3.693264  0.204151
0.88561  3.646567  0.186172
0.90721  3.909464  0.269811
0.92989  3.877174  0.506341
0.95373  3.837594  1.113792
