; From SOPRA S.A. http://www.sopra-sa.com/indices.htm
; Filename    Symbol               Range (nm)     Description
; SI100_2     Si                  230      840    Crystalline Silicon (100 orientation)
; lambda/um       n         k
0.23000  1.524740  3.623835
0.23200  1.643554  3.495514
0.23400  1.693630  3.436738
0.23600  1.700266  3.425202
0.23800  1.689546  3.438651
0.24000  1.682086  3.451755
0.24200  1.679156  3.460002
0.24400  1.683106  3.510112
0.24600  1.682580  3.563507
0.24800  1.684318  3.620427
0.25000  1.694919  3.680298
0.25200  1.711586  3.746092
0.25400  1.735745  3.822044
0.25600  1.747415  3.907512
0.25800  1.778247  3.996065
0.26000  1.805762  4.095017
0.26200  1.847403  4.202950
0.26400  1.900890  4.314125
0.26600  1.966788  4.443078
0.26800  2.043711  4.581435
0.27000  2.154056  4.724329
0.27200  2.296793  4.868192
0.27400  2.466137  4.997114
0.27600  2.651593  5.112203
0.27800  2.871046  5.206655
0.28000  3.099788  5.274563
0.28200  3.330338  5.320352
0.28400  3.601460  5.353638
0.28600  3.895566  5.351128
0.28800  4.203012  5.281437
0.29000  4.490594  5.127031
0.29200  4.729249  4.913552
0.29400  4.887653  4.681839
0.29600  4.981590  4.464229
0.29800  5.033178  4.266419
0.30000  5.064480  4.093587
0.30200  5.078412  3.945227
0.30400  5.079936  3.821289
0.30600  5.077194  3.713977
0.30800  5.073672  3.621002
0.31000  5.076739  3.539562
0.31200  5.074158  3.468227
0.31400  5.080665  3.406529
0.31600  5.087031  3.351553
0.31800  5.091307  3.304618
0.32000  5.106307  3.257218
0.32200  5.112141  3.219397
0.32400  5.123553  3.180842
0.32600  5.141940  3.143407
0.32800  5.165942  3.109269
0.33000  5.183555  3.076779
0.33200  5.198738  3.046669
0.33400  5.225777  3.015945
0.33600  5.250291  2.992126
0.33800  5.274298  2.968669
0.34000  5.301243  2.947376
0.34200  5.333894  2.931836
0.34400  5.365488  2.919171
0.34600  5.401497  2.910261
0.34800  5.444793  2.904168
0.35000  5.497814  2.904005
0.35200  5.562315  2.908919
0.35400  5.644081  2.918769
0.35600  5.752216  2.924598
0.35800  5.885999  2.927870
0.36000  6.054917  2.903086
0.36200  6.253661  2.829930
0.36400  6.462765  2.700959
0.36600  6.651894  2.511858
0.36800  6.797713  2.267351
0.37000  6.884267  1.991018
0.37200  6.908372  1.701323
0.37400  6.865900  1.431818
0.37600  6.770719  1.191758
0.37800  6.651631  0.998273
0.38000  6.520200  0.845807
0.38200  6.379892  0.719429
0.38400  6.259579  0.628192
0.38600  6.151734  0.556487
0.38800  6.049011  0.497803
0.39000  5.952566  0.447766
0.39200  5.864153  0.406872
0.39400  5.787899  0.372812
0.39600  5.710871  0.341727
0.39800  5.637747  0.315263
0.40000  5.572279  0.291767
0.40200  5.509209  0.271161
0.40400  5.449704  0.254336
0.40600  5.395342  0.239069
0.40800  5.341262  0.224358
0.41000  5.291250  0.212016
0.41200  5.244595  0.200154
0.41400  5.201213  0.189730
0.41600  5.158926  0.180348
0.41800  5.117064  0.171274
0.42000  5.080150  0.163005
0.42200  5.044519  0.156314
0.42400  5.008751  0.149136
0.42600  4.976461  0.143175
0.42800  4.944397  0.137113
0.43000  4.915719  0.131372
0.43200  4.887444  0.126170
0.43400  4.860158  0.121579
0.43600  4.836020  0.117086
0.43800  4.810354  0.113655
0.44000  4.785422  0.108632
0.44200  4.761088  0.105652
0.44400  4.737557  0.101790
0.44600  4.713535  0.098470
0.44800  4.690823  0.095214
0.45000  4.668692  0.091198
0.45200  4.647830  0.088559
0.45400  4.627556  0.085867
0.45600  4.607913  0.083377
0.45800  4.588824  0.081056
0.46000  4.570170  0.078890
0.46200  4.551804  0.076875
0.46400  4.534009  0.074835
0.46600  4.517099  0.072424
0.46800  4.500906  0.069890
0.47000  4.485168  0.067642
0.47200  4.469703  0.066037
0.47400  4.454513  0.064615
0.47600  4.439414  0.063070
0.47800  4.424532  0.061459
0.48000  4.410096  0.059910
0.48200  4.396318  0.058495
0.48400  4.382820  0.057113
0.48600  4.369113  0.055676
0.48800  4.355542  0.054226
0.49000  4.342686  0.052836
0.49200  4.331053  0.051562
0.49400  4.319961  0.050352
0.49600  4.309062  0.049181
0.49800  4.298246  0.048057
0.50000  4.287354  0.047007
0.50200  4.276139  0.046060
0.50400  4.265127  0.045100
0.50600  4.254852  0.043947
0.50800  4.245113  0.042722
0.51000  4.235581  0.041623
0.51200  4.226032  0.040825
0.51400  4.216541  0.040110
0.51600  4.206972  0.039346
0.51800  4.197457  0.038545
0.52000  4.188200  0.037733
0.52200  4.179378  0.036909
0.52400  4.170822  0.036123
0.52600  4.162436  0.035451
0.52800  4.154256  0.034856
0.53000  4.146404  0.034291
0.53200  4.139019  0.033729
0.53400  4.131583  0.033106
0.53600  4.123291  0.032229
0.53800  4.114692  0.031271
0.54000  4.106707  0.030519
0.54200  4.100134  0.030235
0.54400  4.093941  0.030055
0.54600  4.087451  0.029734
0.54800  4.080760  0.029294
0.55000  4.074083  0.028796
0.55200  4.067522  0.028253
0.55400  4.060969  0.027677
0.55600  4.054329  0.027086
0.55800  4.047673  0.026485
0.56000  4.041083  0.025857
0.56200  4.034606  0.025175
0.56400  4.028394  0.024624
0.56600  4.022831  0.024527
0.56800  4.017609  0.024652
0.57000  4.012235  0.024615
0.57200  4.006277  0.024080
0.57400  4.000216  0.023473
0.57600  3.994260  0.023103
0.57800  3.988476  0.022878
0.58000  3.982928  0.022614
0.58200  3.977722  0.022171
0.58400  3.972751  0.021788
0.58600  3.968010  0.021751
0.58800  3.963423  0.021870
0.59000  3.958880  0.021831
0.59200  3.954280  0.021371
0.59400  3.949680  0.020786
0.59600  3.945071  0.020189
0.59800  3.940468  0.019649
0.60000  3.935887  0.019257
0.60200  3.931345  0.019128
0.60400  3.926842  0.019099
0.60600  3.922394  0.019109
0.60800  3.917994  0.019088
0.61000  3.913623  0.018930
0.61200  3.909267  0.018511
0.61400  3.904972  0.018038
0.61600  3.900745  0.017681
0.61800  3.896644  0.017405
0.62000  3.892764  0.017145
0.62200  3.889205  0.016870
0.62400  3.885801  0.016587
0.62600  3.882427  0.016243
0.62800  3.879100  0.015906
0.63000  3.875904  0.015697
0.63200  3.872926  0.015740
0.63400  3.869798  0.015797
0.63600  3.866002  0.015629
0.63800  3.861829  0.015332
0.64000  3.857740  0.015079
0.64200  3.854083  0.015003
0.64400  3.850673  0.014931
0.64600  3.847639  0.014716
0.64800  3.844795  0.014424
0.65000  3.841835  0.014167
0.65200  3.838462  0.014031
0.65400  3.835151  0.013928
0.65600  3.832441  0.013838
0.65800  3.829991  0.013726
0.66000  3.827192  0.013536
0.66200  3.823494  0.013192
0.66400  3.819831  0.012876
0.66600  3.817198  0.012823
0.66800  3.815062  0.012892
0.67000  3.812486  0.012822
0.67200  3.808671  0.012379
0.67400  3.804801  0.011982
0.67600  3.801831  0.012102
0.67800  3.799471  0.012474
0.68000  3.797202  0.012642
0.68200  3.794689  0.012224
0.68400  3.792159  0.011733
0.68600  3.789671  0.011601
0.68800  3.787198  0.011639
0.69000  3.784695  0.011485
0.69200  3.782136  0.010833
0.69400  3.779506  0.010233
0.69600  3.776661  0.010221
0.69800  3.773779  0.010577
0.70000  3.771168  0.010936
0.70200  3.769130  0.011048
0.70400  3.767129  0.011032
0.70600  3.764552  0.010828
0.70800  3.761756  0.010499
0.71000  3.759381  0.010121
0.71200  3.757990  0.009748
0.71400  3.756651  0.009460
0.71600  3.754559  0.009433
0.71800  3.751962  0.009570
0.72000  3.749305  0.009690
0.72200  3.746870  0.009639
0.72400  3.744499  0.009663
0.72600  3.742050  0.010165
0.72800  3.739747  0.010772
0.73000  3.738010  0.010828
0.73200  3.737282  0.009706
0.73400  3.736578  0.008504
0.73600  3.734933  0.008223
0.73800  3.732651  0.008518
0.74000  3.730274  0.008790
0.74200  3.728162  0.008631
0.74400  3.726043  0.008319
0.74600  3.723621  0.007773
0.74800  3.721251  0.007203
0.75000  3.719589  0.006945
0.75200  3.719310  0.007338
0.75400  3.718999  0.007854
0.75600  3.717312  0.008137
0.75800  3.714660  0.008189
0.76000  3.711678  0.008044
0.76200  3.708672  0.007666
0.76400  3.706180  0.007166
0.76600  3.705558  0.006501
0.76800  3.705832  0.005886
0.77000  3.705388  0.005681
0.77200  3.702825  0.006272
0.77400  3.699871  0.006936
0.77600  3.697630  0.007044
0.77800  3.695926  0.006748
0.78000  3.694398  0.006295
0.78200  3.692906  0.005791
0.78400  3.691379  0.005447
0.78600  3.689545  0.005619
0.78800  3.687587  0.006188
0.79000  3.685773  0.007030
0.79200  3.684309  0.008144
0.79400  3.683170  0.008902
0.79600  3.682779  0.008316
0.79800  3.682615  0.006910
0.80000  3.681818  0.005483
0.80200  3.679560  0.004614
0.80400  3.677101  0.004209
0.80600  3.675498  0.004807
0.80800  3.674399  0.005936
0.81000  3.673140  0.006881
0.81200  3.671235  0.007040
0.81400  3.669333  0.006828
0.81600  3.667993  0.006147
0.81800  3.666960  0.005285
0.82000  3.665732  0.004675
0.82200  3.663865  0.004740
0.82400  3.662265  0.005005
0.82600  3.662201  0.005255
0.82800  3.662755  0.005433
0.83000  3.662286  0.005481
0.83200  3.659270  0.005300
0.83400  3.656372  0.005005
0.83600  3.654757  0.004635
0.83800  3.655589  0.004227
0.84000  3.660034  0.003821
