; From SOPRA S.A. http://www.sopra-sa.com/indices.htm
; Filename    Symbol               Range (nm)     Description
; SI110       Si                  230      840    Crystalline Silicon (110 orientation)
; lambda/um       n         k
0.23000  1.265381  3.501322
0.23200  1.594793  3.455894
0.23400  1.704470  3.425930
0.23600  1.694706  3.413226
0.23800  1.672151  3.420043
0.24000  1.695620  3.445006
0.24200  1.688875  3.477798
0.24400  1.700090  3.524017
0.24600  1.701505  3.583802
0.24800  1.698405  3.644785
0.25000  1.713356  3.689775
0.25200  1.750639  3.705398
0.25400  1.755160  3.842121
0.25600  1.770098  3.936614
0.25800  1.800296  4.025908
0.26000  1.834510  4.118018
0.26200  1.880101  4.228687
0.26400  1.933754  4.349102
0.26600  2.001680  4.482396
0.26800  2.088116  4.615210
0.27000  2.200999  4.755771
0.27200  2.349337  4.895677
0.27400  2.521078  5.023463
0.27600  2.710952  5.127940
0.27800  2.934010  5.215480
0.28000  3.158581  5.281462
0.28200  3.397136  5.319522
0.28400  3.665720  5.349414
0.28600  3.957475  5.338569
0.28800  4.266907  5.259318
0.29000  4.547875  5.103981
0.29200  4.778088  4.892679
0.29400  4.936369  4.659598
0.29600  5.025358  4.438009
0.29800  5.078607  4.238882
0.30000  5.100845  4.071019
0.30200  5.117023  3.923983
0.30400  5.119356  3.793688
0.30600  5.113163  3.687790
0.30800  5.110436  3.593673
0.31000  5.108898  3.511633
0.31200  5.104711  3.444561
0.31400  5.109791  3.382160
0.31600  5.114929  3.324409
0.31800  5.119865  3.276941
0.32000  5.130976  3.231839
0.32200  5.136320  3.192885
0.32400  5.152356  3.149912
0.32600  5.168497  3.117037
0.32800  5.188717  3.080990
0.33000  5.210861  3.044999
0.33200  5.224320  3.013496
0.33400  5.246631  2.986599
0.33600  5.266722  2.964655
0.33800  5.290899  2.944502
0.34000  5.315456  2.925543
0.34200  5.348661  2.904434
0.34400  5.381575  2.892289
0.34600  5.420365  2.884144
0.34800  5.464093  2.878054
0.35000  5.517918  2.876323
0.35200  5.584792  2.881643
0.35400  5.668272  2.892956
0.35600  5.783062  2.900105
0.35800  5.924934  2.897474
0.36000  6.103157  2.860808
0.36200  6.300804  2.776184
0.36400  6.502690  2.631619
0.36600  6.675273  2.423737
0.36800  6.796278  2.173508
0.37000  6.855747  1.904345
0.37200  6.856317  1.632300
0.37400  6.806209  1.382284
0.37600  6.717516  1.163712
0.37800  6.602773  0.982391
0.38000  6.478052  0.834544
0.38200  6.346700  0.712892
0.38400  6.229778  0.624193
0.38600  6.124131  0.555269
0.38800  6.023129  0.495823
0.39000  5.930187  0.446432
0.39200  5.844566  0.404928
0.39400  5.767003  0.370426
0.39600  5.691996  0.339642
0.39800  5.621551  0.313999
0.40000  5.558685  0.292550
0.40200  5.491958  0.271784
0.40400  5.433012  0.253875
0.40600  5.378610  0.238343
0.40800  5.327485  0.224067
0.41000  5.278825  0.211365
0.41200  5.232571  0.198994
0.41400  5.188302  0.188910
0.41600  5.144191  0.179766
0.41800  5.104696  0.171766
0.42000  5.068051  0.163402
0.42200  5.034971  0.156417
0.42400  5.000371  0.149448
0.42600  4.967833  0.142571
0.42800  4.937166  0.136861
0.43000  4.908050  0.131306
0.43200  4.879095  0.126128
0.43400  4.850580  0.121463
0.43600  4.824311  0.116966
0.43800  4.804978  0.112578
0.44000  4.780645  0.107918
0.44200  4.754880  0.104718
0.44400  4.731524  0.100831
0.44600  4.709342  0.097579
0.44800  4.686438  0.094187
0.45000  4.664295  0.092175
0.45200  4.644697  0.088493
0.45400  4.624613  0.085682
0.45600  4.604647  0.083160
0.45800  4.585048  0.080818
0.46000  4.566155  0.078509
0.46200  4.548366  0.076065
0.46400  4.531171  0.073689
0.46600  4.514190  0.071504
0.46800  4.497543  0.069497
0.47000  4.481483  0.067653
0.47200  4.466208  0.065987
0.47400  4.451319  0.064381
0.47600  4.436428  0.062690
0.47800  4.421669  0.060961
0.48000  4.407305  0.059267
0.48200  4.393543  0.057647
0.48400  4.380029  0.056130
0.48600  4.366269  0.054821
0.48800  4.352648  0.053635
0.49000  4.339802  0.052438
0.49200  4.328294  0.051110
0.49400  4.317393  0.049789
0.49600  4.306788  0.048535
0.49800  4.296275  0.047366
0.50000  4.285552  0.046315
0.50200  4.274235  0.045437
0.50400  4.263006  0.044570
0.50600  4.252447  0.043525
0.50800  4.242415  0.042388
0.51000  4.232628  0.041306
0.51200  4.222904  0.040388
0.51400  4.213465  0.039542
0.51600  4.204567  0.038759
0.51800  4.196002  0.038006
0.52000  4.187396  0.037231
0.52200  4.178396  0.036380
0.52400  4.169638  0.035543
0.52600  4.161838  0.034805
0.52800  4.154590  0.034131
0.53000  4.147209  0.033450
0.53200  4.139132  0.032705
0.53400  4.131012  0.031998
0.53600  4.123247  0.031408
0.53800  4.115770  0.030925
0.54000  4.108432  0.030547
0.54200  4.101161  0.030300
0.54400  4.094016  0.030011
0.54600  4.087017  0.029429
0.54800  4.080168  0.028686
0.55000  4.073502  0.028002
0.55200  4.067070  0.027559
0.55400  4.060646  0.027135
0.55600  4.053880  0.026529
0.55800  4.046992  0.025863
0.56000  4.040331  0.025345
0.56200  4.034175  0.025157
0.56400  4.028309  0.025038
0.56600  4.022802  0.024812
0.56800  4.017446  0.024493
0.57000  4.011914  0.024127
0.57200  4.005879  0.023728
0.57400  3.999804  0.023258
0.57600  3.994021  0.022598
0.57800  3.988466  0.021887
0.58000  3.982999  0.021344
0.58200  3.977539  0.021174
0.58400  3.972182  0.021112
0.58600  3.966985  0.021024
0.58800  3.961940  0.020875
0.59000  3.957025  0.020631
0.59200  3.952230  0.020229
0.59400  3.947571  0.019752
0.59600  3.943105  0.019192
0.59800  3.938757  0.018646
0.60000  3.934402  0.018267
0.60200  3.929917  0.018205
0.60400  3.925500  0.018268
0.60600  3.921362  0.018409
0.60800  3.917384  0.018518
0.61000  3.913357  0.018414
0.61200  3.909107  0.017891
0.61400  3.904861  0.017343
0.61600  3.900753  0.017176
0.61800  3.896786  0.017211
0.62000  3.892939  0.017116
0.62200  3.889214  0.016626
0.62400  3.885640  0.016128
0.62600  3.882400  0.015961
0.62800  3.879254  0.015985
0.63000  3.875787  0.015964
0.63200  3.871587  0.015727
0.63400  3.867403  0.015408
0.63600  3.863936  0.014969
0.63800  3.860934  0.014537
0.64000  3.857963  0.014341
0.64200  3.854726  0.014628
0.64400  3.851409  0.014873
0.64600  3.847959  0.014454
0.64800  3.844492  0.013708
0.65000  3.841200  0.013218
0.65200  3.838281  0.013470
0.65400  3.835387  0.013815
0.65600  3.832151  0.013755
0.65800  3.828756  0.013448
0.66000  3.825507  0.013199
0.66200  3.822652  0.013230
0.66400  3.819912  0.013226
0.66600  3.817123  0.012920
0.66800  3.814316  0.012423
0.67000  3.811573  0.011905
0.67200  3.808956  0.011475
0.67400  3.806311  0.011162
0.67600  3.803461  0.011162
0.67800  3.800488  0.011314
0.68000  3.797501  0.011358
0.68200  3.794562  0.011067
0.68400  3.791786  0.010708
0.68600  3.789468  0.010421
0.68800  3.787389  0.010215
0.69000  3.785174  0.010079
0.69200  3.782479  0.010025
0.69400  3.779845  0.010067
0.69600  3.777762  0.010316
0.69800  3.776033  0.010628
0.70000  3.774362  0.010786
0.70200  3.772576  0.010596
0.70400  3.770504  0.010235
0.70600  3.767601  0.009662
0.70800  3.764280  0.009060
0.71000  3.761196  0.008692
0.71200  3.758900  0.008818
0.71400  3.756875  0.009165
0.71600  3.754982  0.009783
0.71800  3.753093  0.010376
0.72000  3.751016  0.010451
0.72200  3.748514  0.009479
0.72400  3.746019  0.008452
0.72600  3.743851  0.008313
0.72800  3.741998  0.008727
0.73000  3.740471  0.009115
0.73200  3.739387  0.009081
0.73400  3.738151  0.008886
0.73600  3.735943  0.008401
0.73800  3.733187  0.007895
0.74000  3.730579  0.007868
0.74200  3.728658  0.008857
0.74400  3.726974  0.009674
0.74600  3.725447  0.008881
0.74800  3.723956  0.007284
0.75000  3.722321  0.006278
0.75200  3.720339  0.007040
0.75400  3.718304  0.007975
0.75600  3.716485  0.007821
0.75800  3.714752  0.007024
0.76000  3.712819  0.006380
0.76200  3.710404  0.006453
0.76400  3.708244  0.006709
0.76600  3.707404  0.006964
0.76800  3.707153  0.007145
0.77000  3.706238  0.007151
0.77200  3.703550  0.006830
0.77400  3.700695  0.006487
0.77600  3.699225  0.006411
0.77800  3.698319  0.006506
0.78000  3.696437  0.006604
0.78200  3.692217  0.006596
0.78400  3.688134  0.006531
0.78600  3.686579  0.006362
0.78800  3.686610  0.006149
0.79000  3.686623  0.005996
0.79200  3.685480  0.006005
0.79400  3.683995  0.006010
0.79600  3.681987  0.005832
0.79800  3.680040  0.005572
0.80000  3.679196  0.005389
0.80200  3.680582  0.005408
0.80400  3.681823  0.005540
0.80600  3.680536  0.005824
0.80800  3.677603  0.006164
0.81000  3.674517  0.006435
0.81200  3.672290  0.006524
0.81400  3.670398  0.006455
0.81600  3.668966  0.006060
0.81800  3.667861  0.005538
0.82000  3.666953  0.005233
0.82200  3.666175  0.005486
0.82400  3.665116  0.005689
0.82600  3.662902  0.005155
0.82800  3.660172  0.004277
0.83000  3.657872  0.003723
0.83200  3.656745  0.004052
0.83400  3.656556  0.004554
0.83600  3.657421  0.004973
0.83800  3.659455  0.005053
0.84000  3.662772  0.004537
