; From SOPRA S.A. http://www.sopra-sa.com/indices.htm
; Filename    Symbol               Range (nm)     Description
; SI11GE89    Si0.11Ge0.89        240      840    Silicon Germanium alloy (11% Si)
; lambda/um       n         k
0.24000  1.570500  3.177400
0.24200  1.563800  3.216400
0.24400  1.579100  3.265000
0.24600  1.600800  3.312500
0.24800  1.613100  3.367600
0.25000  1.651700  3.426700
0.25200  1.672100  3.483600
0.25400  1.705400  3.546300
0.25600  1.731400  3.610100
0.25800  1.765800  3.678900
0.26000  1.809000  3.749700
0.26200  1.846100  3.821600
0.26400  1.895900  3.895000
0.26600  1.948100  3.978900
0.26800  2.015200  4.067200
0.27000  2.085200  4.156100
0.27200  2.169800  4.258000
0.27400  2.279500  4.355900
0.27600  2.393600  4.463000
0.27800  2.536700  4.566700
0.28000  2.738700  4.658500
0.28200  2.964300  4.723000
0.28400  3.211500  4.723300
0.28600  3.452500  4.674300
0.28800  3.691500  4.569700
0.29000  3.865900  4.433700
0.29200  3.993700  4.281100
0.29400  4.085100  4.133000
0.29600  4.165000  3.988200
0.29800  4.201300  3.858300
0.30000  4.233300  3.739100
0.30200  4.261087  3.632407
0.30400  4.274100  3.537800
0.30600  4.277362  3.453894
0.30800  4.275900  3.379300
0.31000  4.277187  3.312781
0.31200  4.278900  3.252500
0.31400  4.281419  3.195494
0.31600  4.284100  3.143900
0.31800  4.286075  3.100625
0.32000  4.288400  3.060400
0.32200  4.292687  3.017456
0.32400  4.296400  2.976200
0.32600  4.296137  2.939644
0.32800  4.296100  2.906200
0.33000  4.300406  2.875800
0.33200  4.305900  2.846900
0.33400  4.310981  2.817187
0.33600  4.315100  2.788900
0.33800  4.316056  2.764256
0.34000  4.317200  2.741000
0.34200  4.322162  2.717044
0.34400  4.327900  2.694100
0.34600  4.331663  2.673806
0.34800  4.336200  2.654300
0.35000  4.344237  2.633975
0.35200  4.353100  2.613700
0.35400  4.360619  2.593600
0.35600  4.368000  2.574300
0.35800  4.375700  2.556944
0.36000  4.383800  2.540100
0.36200  4.392675  2.522582
0.36400  4.401900  2.504800
0.36600  4.410856  2.487306
0.36800  4.420500  2.468500
0.37000  4.432575  2.446075
0.37200  4.444100  2.422700
0.37400  4.452144  2.400425
0.37600  4.458300  2.378800
0.37800  4.462675  2.358944
0.38000  4.466800  2.338200
0.38200  4.472950  2.313038
0.38400  4.479000  2.287200
0.38600  4.483637  2.263875
0.38800  4.486700  2.241200
0.39000  4.487269  2.218294
0.39200  4.486300  2.195400
0.39400  4.484850  2.171775
0.39600  4.481700  2.149500
0.39800  4.475594  2.131050
0.40000  4.467700  2.114500
0.40200  4.458194  2.098225
0.40400  4.448800  2.083800
0.40600  4.441863  2.072669
0.40800  4.435700  2.063600
0.41000  4.429325  2.055831
0.41200  4.423000  2.049400
0.41400  4.416375  2.043813
0.41600  4.410300  2.039900
0.41800  4.405325  2.038162
0.42000  4.402000  2.039100
0.42200  4.397651  2.042814
0.42400  4.394861  2.046503
0.42600  4.393566  2.050185
0.42800  4.393701  2.053878
0.43000  4.395200  2.057600
0.43200  4.397999  2.061370
0.43400  4.402033  2.065207
0.43600  4.407238  2.069129
0.43800  4.413549  2.073154
0.44000  4.420900  2.077300
0.44200  4.429231  2.081715
0.44400  4.438471  2.086255
0.44600  4.448557  2.090909
0.44800  4.459422  2.095662
0.45000  4.471000  2.100500
0.45200  4.482561  2.105449
0.45400  4.494871  2.110446
0.45600  4.508030  2.115470
0.45800  4.522139  2.120495
0.46000  4.537300  2.125500
0.46200  4.554234  2.130525
0.46400  4.572265  2.135466
0.46600  4.591339  2.140285
0.46800  4.611403  2.144943
0.47000  4.632400  2.149400
0.47200  4.653644  2.153898
0.47400  4.675872  2.158047
0.47600  4.699188  2.161737
0.47800  4.723696  2.164858
0.48000  4.749500  2.167300
0.48200  4.777193  2.169738
0.48400  4.806269  2.171083
0.48600  4.836707  2.171029
0.48800  4.868490  2.169270
0.49000  4.901600  2.165500
0.49200  4.937464  2.158406
0.49400  4.974256  2.148943
0.49600  5.011596  2.137057
0.49800  5.049104  2.122694
0.50000  5.086400  2.105800
0.50200  5.123180  2.084675
0.50400  5.158971  2.061323
0.50600  5.193369  2.036105
0.50800  5.225980  2.009377
0.51000  5.256400  1.981500
0.51200  5.281027  1.953121
0.51400  5.303467  1.924237
0.51600  5.324125  1.895131
0.51800  5.343402  1.866090
0.52000  5.361700  1.837400
0.52200  5.379407  1.811668
0.52400  5.396943  1.786278
0.52600  5.414717  1.760933
0.52800  5.433134  1.735339
0.53000  5.452600  1.709200
0.53200  5.476975  1.683069
0.53400  5.502349  1.655591
0.53600  5.528266  1.626257
0.53800  5.554268  1.594564
0.54000  5.579900  1.560000
0.54200  5.605640  1.518567
0.54400  5.629862  1.474123
0.54600  5.651873  1.427037
0.54800  5.670983  1.377675
0.55000  5.686500  1.326400
0.55200  5.694369  1.271993
0.55400  5.698105  1.216804
0.55600  5.697855  1.161600
0.55800  5.693770  1.107143
0.56000  5.686000  1.054200
0.56200  5.673110  1.006515
0.56400  5.657228  0.961123
0.56600  5.638903  0.918045
0.56800  5.618678  0.877297
0.57000  5.597100  0.838900
0.57200  5.576272  0.803286
0.57400  5.554792  0.769955
0.57600  5.532816  0.738821
0.57800  5.510499  0.709797
0.58000  5.488000  0.682800
0.58200  5.465478  0.658078
0.58400  5.443083  0.635127
0.58600  5.420969  0.613776
0.58800  5.399290  0.593857
0.59000  5.378200  0.575200
0.59200  5.358930  0.557209
0.59400  5.340289  0.540247
0.59600  5.322163  0.524250
0.59800  5.304439  0.509155
0.60000  5.287000  0.494900
0.60200  5.268966  0.481322
0.60400  5.251182  0.468481
0.60600  5.233723  0.456339
0.60800  5.216671  0.444859
0.61000  5.200100  0.434000
0.61200  5.184829  0.423867
0.61400  5.170011  0.414243
0.61600  5.155538  0.405057
0.61800  5.141304  0.396234
0.62000  5.127200  0.387700
0.62200  5.112308  0.378883
0.62400  5.097536  0.370334
0.62600  5.082980  0.362102
0.62800  5.068736  0.354241
0.63000  5.054900  0.346800
0.63200  5.041974  0.340369
0.63400  5.029547  0.334326
0.63600  5.017613  0.328590
0.63800  5.006166  0.323075
0.64000  4.995200  0.317700
0.64200  4.985018  0.311962
0.64400  4.975229  0.306301
0.64600  4.965751  0.300739
0.64800  4.956502  0.295298
0.65000  4.947400  0.290000
0.65200  4.938010  0.285006
0.65400  4.928689  0.280163
0.65600  4.919443  0.275457
0.65800  4.910278  0.270874
0.66000  4.901200  0.266400
0.66200  4.892422  0.261840
0.66400  4.883689  0.257408
0.66600  4.874955  0.253136
0.66800  4.866174  0.249056
0.67000  4.857300  0.245200
0.67200  4.847636  0.241958
0.67400  4.837948  0.238915
0.67600  4.828352  0.236013
0.67800  4.818964  0.233194
0.68000  4.809900  0.230400
0.68200  4.801960  0.227206
0.68400  4.794406  0.224015
0.68600  4.787181  0.220861
0.68800  4.780231  0.217778
0.69000  4.773500  0.214800
0.69200  4.766891  0.212282
0.69400  4.760402  0.209859
0.69600  4.753986  0.207485
0.69800  4.747601  0.205114
0.70000  4.741200  0.202700
0.70200  4.734589  0.199728
0.70400  4.727910  0.196740
0.70600  4.721158  0.193808
0.70800  4.714323  0.191004
0.71000  4.707400  0.188400
0.71200  4.699901  0.186746
0.71400  4.692418  0.185267
0.71600  4.685065  0.183865
0.71800  4.677955  0.182442
0.72000  4.671200  0.180900
0.72200  4.665802  0.178317
0.72400  4.660763  0.175627
0.72600  4.655972  0.172938
0.72800  4.651321  0.170359
0.73000  4.646700  0.168000
0.73200  4.641407  0.166807
0.73400  4.636071  0.165842
0.73600  4.630733  0.165002
0.73800  4.625430  0.164189
0.74000  4.620200  0.163300
0.74200  4.615118  0.161730
0.74400  4.610177  0.160009
0.74600  4.605407  0.158163
0.74800  4.600838  0.156218
0.75000  4.596500  0.154200
0.75200  4.593020  0.151974
0.75400  4.589680  0.149765
0.75600  4.586360  0.147639
0.75800  4.582940  0.145662
0.76000  4.579300  0.143900
0.76200  4.574523  0.143048
0.76400  4.569486  0.142384
0.76600  4.564266  0.141816
0.76800  4.558945  0.141252
0.77000  4.553600  0.140600
0.77200  4.548317  0.139253
0.77400  4.543169  0.137762
0.77600  4.538231  0.136166
0.77800  4.533583  0.134499
0.78000  4.529300  0.132800
0.78200  4.526409  0.131201
0.78400  4.523803  0.129618
0.78600  4.521322  0.128066
0.78800  4.518807  0.126555
0.79000  4.516100  0.125100
0.79200  4.511467  0.123918
0.79400  4.506715  0.122765
0.79600  4.502081  0.121603
0.79800  4.497798  0.120394
0.80000  4.494100  0.119100
0.80200  4.493607  0.117080
0.80400  4.493571  0.115048
0.80600  4.493633  0.113116
0.80800  4.493430  0.111396
0.81000  4.492600  0.110000
0.81200  4.487947  0.110109
0.81400  4.482654  0.110498
0.81600  4.477067  0.111014
0.81800  4.471533  0.111499
0.82000  4.466400  0.111800
0.82200  4.464838  0.110746
0.82400  4.463665  0.109451
0.82600  4.462523  0.108013
0.82800  4.461054  0.106530
0.83000  4.458900  0.105100
0.83200  4.455701  0.103822
0.83400  4.451100  0.102795
0.83600  4.444739  0.102117
0.83800  4.436258  0.101886
0.84000  4.425300  0.102200
