; From SOPRA S.A. http://www.sopra-sa.com/indices.htm
; Filename    Symbol               Range (nm)     Description
; SI111       Si                  230      840    Crystalline Silicon (111 orientation)
; lambda/um       n         k
0.23000  1.430390  3.522574
0.23200  1.600472  3.446624
0.23400  1.681097  3.414697
0.23600  1.699962  3.411389
0.23800  1.684644  3.420293
0.24000  1.664920  3.432326
0.24200  1.664778  3.462483
0.24400  1.668323  3.507006
0.24600  1.663368  3.557147
0.24800  1.666429  3.615909
0.25000  1.678898  3.677199
0.25200  1.689610  3.752936
0.25400  1.711883  3.829463
0.25600  1.727596  3.907681
0.25800  1.755684  4.000924
0.26000  1.785969  4.094213
0.26200  1.826784  4.204822
0.26400  1.880218  4.317354
0.26600  1.945390  4.452492
0.26800  2.021106  4.590152
0.27000  2.129177  4.725997
0.27200  2.267558  4.873557
0.27400  2.437221  5.004159
0.27600  2.625684  5.115208
0.27800  2.835577  5.213988
0.28000  3.054214  5.286092
0.28200  3.281235  5.342772
0.28400  3.540887  5.392238
0.28600  3.838134  5.405491
0.28800  4.162665  5.359183
0.29000  4.472842  5.222939
0.29200  4.743055  5.007457
0.29400  4.922628  4.760268
0.29600  5.023392  4.526331
0.29800  5.087540  4.313845
0.30000  5.117203  4.128103
0.30200  5.128111  3.972224
0.30400  5.127887  3.836359
0.30600  5.121679  3.724030
0.30800  5.115496  3.626138
0.31000  5.114830  3.539095
0.31200  5.107942  3.468220
0.31400  5.108737  3.405241
0.31600  5.111622  3.346609
0.31800  5.113332  3.297913
0.32000  5.122327  3.251807
0.32200  5.130066  3.211259
0.32400  5.141722  3.171805
0.32600  5.158565  3.137231
0.32800  5.181591  3.103380
0.33000  5.200143  3.068072
0.33200  5.210651  3.040965
0.33400  5.235778  3.011992
0.33600  5.258598  2.987198
0.33800  5.280167  2.968389
0.34000  5.304861  2.950468
0.34200  5.333962  2.935500
0.34400  5.365853  2.923730
0.34600  5.405377  2.916109
0.34800  5.450543  2.913484
0.35000  5.505639  2.919673
0.35200  5.573130  2.929622
0.35400  5.659607  2.943933
0.35600  5.778295  2.955258
0.35800  5.926752  2.957443
0.36000  6.114590  2.923677
0.36200  6.330264  2.839321
0.36400  6.545706  2.684896
0.36600  6.728191  2.465397
0.36800  6.855192  2.197885
0.37000  6.915324  1.911950
0.37200  6.910819  1.626658
0.37400  6.851506  1.368429
0.37600  6.751050  1.147292
0.37800  6.629322  0.964795
0.38000  6.498991  0.818570
0.38200  6.361499  0.699564
0.38400  6.245434  0.613961
0.38600  6.137983  0.544000
0.38800  6.033606  0.485524
0.39000  5.939575  0.437199
0.39200  5.851779  0.395636
0.39400  5.775610  0.362582
0.39600  5.700899  0.332778
0.39800  5.628742  0.307315
0.40000  5.561471  0.285908
0.40200  5.500082  0.266468
0.40400  5.440256  0.248604
0.40600  5.384667  0.233323
0.40800  5.332227  0.219379
0.41000  5.283514  0.206920
0.41200  5.236704  0.195198
0.41400  5.192735  0.185130
0.41600  5.149562  0.176174
0.41800  5.109837  0.167482
0.42000  5.073002  0.160195
0.42200  5.037392  0.153434
0.42400  5.002055  0.145531
0.42600  4.969005  0.139086
0.42800  4.937775  0.133935
0.43000  4.908678  0.128692
0.43200  4.880329  0.123657
0.43400  4.853351  0.118470
0.43600  4.829840  0.114031
0.43800  4.803464  0.110594
0.44000  4.778578  0.106039
0.44200  4.754372  0.102622
0.44400  4.729563  0.099170
0.44600  4.706427  0.095668
0.44800  4.683682  0.092728
0.45000  4.663299  0.089788
0.45200  4.641747  0.086691
0.45400  4.621382  0.084037
0.45600  4.601657  0.081658
0.45800  4.582520  0.079438
0.46000  4.563903  0.077226
0.46200  4.545726  0.074844
0.46400  4.528084  0.072491
0.46600  4.511042  0.070265
0.46800  4.494579  0.068176
0.47000  4.478701  0.066220
0.47200  4.463459  0.064411
0.47400  4.448477  0.062762
0.47600  4.433182  0.061396
0.47800  4.417902  0.060151
0.48000  4.403198  0.058752
0.48200  4.389544  0.056936
0.48400  4.376319  0.055119
0.48600  4.362976  0.053660
0.48800  4.349783  0.052437
0.49000  4.337232  0.051233
0.49200  4.325737  0.049892
0.49400  4.314610  0.048580
0.49600  4.303289  0.047366
0.49800  4.291901  0.046274
0.50000  4.280704  0.045348
0.50200  4.269850  0.044658
0.50400  4.259175  0.044004
0.50600  4.248542  0.043186
0.50800  4.238035  0.042259
0.51000  4.227773  0.041324
0.51200  4.217837  0.040450
0.51400  4.208283  0.039569
0.51600  4.199306  0.038597
0.51800  4.190760  0.037617
0.52000  4.182426  0.036762
0.52200  4.174130  0.036152
0.52400  4.165940  0.035642
0.52600  4.157860  0.035195
0.52800  4.149833  0.034735
0.53000  4.141729  0.034137
0.53200  4.133395  0.033258
0.53400  4.125266  0.032357
0.53600  4.117900  0.031649
0.53800  4.110993  0.031091
0.54000  4.104031  0.030609
0.54200  4.096605  0.030172
0.54400  4.089133  0.029736
0.54600  4.081779  0.029217
0.54800  4.074597  0.028650
0.55000  4.067659  0.028101
0.55200  4.061081  0.027618
0.55400  4.054628  0.027143
0.55600  4.048037  0.026642
0.55800  4.041443  0.026121
0.56000  4.035089  0.025583
0.56200  4.029172  0.025014
0.56400  4.023413  0.024523
0.56600  4.017617  0.024297
0.56800  4.011811  0.024203
0.57000  4.006054  0.024023
0.57200  4.000370  0.023569
0.57400  3.994764  0.023055
0.57600  3.989242  0.022574
0.57800  3.983830  0.022162
0.58000  3.978569  0.021874
0.58200  3.973500  0.021797
0.58400  3.968560  0.021731
0.58600  3.963759  0.021445
0.58800  3.959016  0.021061
0.59000  3.954198  0.020803
0.59200  3.949164  0.020871
0.59400  3.944172  0.020915
0.59600  3.939510  0.020561
0.59800  3.935019  0.020004
0.60000  3.930397  0.019577
0.60200  3.925362  0.019555
0.60400  3.920490  0.019594
0.60600  3.916427  0.019523
0.60800  3.912844  0.019300
0.61000  3.909178  0.018843
0.61200  3.904981  0.018004
0.61400  3.900751  0.017264
0.61600  3.896860  0.017267
0.61800  3.893135  0.017655
0.62000  3.889231  0.017816
0.62200  3.884843  0.017239
0.62400  3.880600  0.016579
0.62600  3.877219  0.016321
0.62800  3.874326  0.016308
0.63000  3.871294  0.016245
0.63200  3.867625  0.015923
0.63400  3.863837  0.015590
0.63600  3.860147  0.015414
0.63800  3.856607  0.015341
0.64000  3.853295  0.015274
0.64200  3.850352  0.015144
0.64400  3.847410  0.015028
0.64600  3.844138  0.015034
0.64800  3.840581  0.015059
0.65000  3.836761  0.014924
0.65200  3.832585  0.014463
0.65400  3.828732  0.013948
0.65600  3.826342  0.013572
0.65800  3.824653  0.013327
0.66000  3.822367  0.013182
0.66200  3.818347  0.013144
0.66400  3.814185  0.013178
0.66600  3.811049  0.013292
0.66800  3.808675  0.013426
0.67000  3.806600  0.013505
0.67200  3.804614  0.013462
0.67400  3.802494  0.013284
0.67600  3.799745  0.012794
0.67800  3.796590  0.012191
0.68000  3.793367  0.011812
0.68200  3.790292  0.011983
0.68400  3.787473  0.012173
0.68600  3.785407  0.011883
0.68800  3.783689  0.011324
0.69000  3.781621  0.010865
0.69200  3.778556  0.010782
0.69400  3.775533  0.010792
0.69600  3.773668  0.010720
0.69800  3.772319  0.010626
0.70000  3.770363  0.010653
0.70200  3.766835  0.010931
0.70400  3.763151  0.011099
0.70600  3.760460  0.010682
0.70800  3.758397  0.009952
0.71000  3.756302  0.009356
0.71200  3.753725  0.009257
0.71400  3.751087  0.009284
0.71600  3.748578  0.009190
0.71800  3.746178  0.009083
0.72000  3.743820  0.009191
0.72200  3.741465  0.009717
0.72400  3.739235  0.010198
0.72600  3.737173  0.010135
0.72800  3.735375  0.009740
0.73000  3.734056  0.009389
0.73200  3.733489  0.009375
0.73400  3.732862  0.009336
0.73600  3.731333  0.008962
0.73800  3.729146  0.008413
0.74000  3.726688  0.007937
0.74200  3.724143  0.007719
0.74400  3.721816  0.007677
0.74600  3.720379  0.008029
0.74800  3.719448  0.008462
0.75000  3.718403  0.008436
0.75200  3.716758  0.007412
0.75400  3.714892  0.006358
0.75600  3.712920  0.006163
0.75800  3.710845  0.006529
0.76000  3.708600  0.006935
0.76200  3.706103  0.007042
0.76400  3.703809  0.007028
0.76600  3.702334  0.006773
0.76800  3.701380  0.006453
0.77000  3.700490  0.006360
0.77200  3.699344  0.006782
0.77400  3.697971  0.007269
0.77600  3.695969  0.007507
0.77800  3.693726  0.007514
0.78000  3.691938  0.007338
0.78200  3.691288  0.006959
0.78400  3.690468  0.006526
0.78600  3.687928  0.006101
0.78800  3.684584  0.005821
0.79000  3.681994  0.005933
0.79200  3.681467  0.006739
0.79400  3.681346  0.007522
0.79600  3.680713  0.007561
0.79800  3.679484  0.007090
0.80000  3.677549  0.006496
0.80200  3.674560  0.006015
0.80400  3.671598  0.005665
0.80600  3.669646  0.005719
0.80800  3.668620  0.005992
0.81000  3.668442  0.006197
0.81200  3.669320  0.006096
0.81400  3.669902  0.005881
0.81600  3.668560  0.005560
0.81800  3.665820  0.005220
0.82000  3.662501  0.004996
0.82200  3.659023  0.005034
0.82400  3.655961  0.005093
0.82600  3.654557  0.004848
0.82800  3.654180  0.004549
0.83000  3.653684  0.004666
0.83200  3.652092  0.005655
0.83400  3.650955  0.006593
0.83600  3.650921  0.007051
0.83800  3.652635  0.006602
0.84000  3.656744  0.004815
