; From SOPRA S.A. http://www.sopra-sa.com/indices.htm
; Filename    Symbol               Range (nm)     Description
; SI20GE80    Si0.20Ge0.80        240      840    Silicon Germanium alloy (20% Si)
; lambda/um       n         k
0.24000  1.624100  3.108500
0.24200  1.626600  3.137500
0.24400  1.655200  3.189100
0.24600  1.675400  3.247900
0.24800  1.687900  3.289900
0.25000  1.707600  3.352900
0.25200  1.739000  3.412700
0.25400  1.772400  3.481000
0.25600  1.787600  3.539200
0.25800  1.829000  3.613100
0.26000  1.862000  3.680100
0.26200  1.915800  3.759500
0.26400  1.957600  3.833100
0.26600  2.016800  3.920400
0.26800  2.081200  4.000800
0.27000  2.148500  4.087400
0.27200  2.233000  4.179000
0.27400  2.343400  4.278200
0.27600  2.456600  4.384800
0.27800  2.599500  4.476700
0.28000  2.773000  4.563600
0.28200  2.986900  4.619000
0.28400  3.214800  4.632000
0.28600  3.448300  4.595600
0.28800  3.684900  4.510900
0.29000  3.863600  4.385200
0.29200  4.002100  4.248500
0.29400  4.098400  4.106600
0.29600  4.193800  3.962800
0.29800  4.233900  3.835800
0.30000  4.273300  3.721900
0.30200  4.303694  3.611419
0.30400  4.321800  3.514600
0.30600  4.330681  3.429806
0.30800  4.333400  3.355400
0.31000  4.332919  3.290469
0.31200  4.332600  3.231200
0.31400  4.338718  3.172156
0.31600  4.345500  3.117300
0.31800  4.348125  3.070019
0.32000  4.350000  3.026600
0.32200  4.353662  2.984075
0.32400  4.356900  2.943600
0.32600  4.357106  2.905075
0.32800  4.358000  2.869300
0.33000  4.363563  2.837850
0.33200  4.370400  2.808300
0.33400  4.376606  2.777838
0.33600  4.381700  2.749200
0.33800  4.383275  2.725181
0.34000  4.385200  2.702800
0.34200  4.392100  2.679519
0.34400  4.399300  2.656800
0.34600  4.401981  2.635607
0.34800  4.405200  2.614900
0.35000  4.413538  2.593587
0.35200  4.423600  2.572800
0.35400  4.433531  2.553600
0.35600  4.443300  2.535100
0.35800  4.451893  2.516612
0.36000  4.460400  2.498600
0.36200  4.469700  2.481769
0.36400  4.479400  2.464700
0.36600  4.489112  2.446037
0.36800  4.499700  2.426300
0.37000  4.512444  2.405787
0.37200  4.525700  2.383800
0.37400  4.538950  2.358712
0.37600  4.550100  2.333600
0.37800  4.555449  2.312112
0.38000  4.559300  2.290900
0.38200  4.565487  2.267231
0.38400  4.571700  2.242900
0.38600  4.577200  2.218737
0.38800  4.581100  2.194900
0.39000  4.581637  2.172107
0.39200  4.580700  2.149500
0.39400  4.580294  2.125731
0.39600  4.578300  2.103000
0.39800  4.572288  2.083081
0.40000  4.565200  2.065900
0.40200  4.559644  2.052413
0.40400  4.554200  2.041300
0.40600  4.547894  2.031563
0.40800  4.542000  2.023200
0.41000  4.537643  2.015856
0.41200  4.534300  2.009600
0.41400  4.531731  2.004244
0.41600  4.530200  2.000200
0.41800  4.529844  1.997731
0.42000  4.530800  1.997100
0.42200  4.530549  2.000216
0.42400  4.531795  2.003020
0.42600  4.534486  2.005556
0.42800  4.538571  2.007868
0.43000  4.544000  2.010000
0.43200  4.550721  2.011996
0.43400  4.558682  2.013900
0.43600  4.567833  2.015756
0.43800  4.578123  2.017608
0.44000  4.589500  2.019500
0.44200  4.601609  2.022062
0.44400  4.614779  2.024605
0.44600  4.629034  2.027027
0.44800  4.644400  2.029227
0.45000  4.660900  2.031100
0.45200  4.678897  2.031995
0.45400  4.697995  2.032498
0.45600  4.718134  2.032643
0.45800  4.739255  2.032465
0.46000  4.761300  2.032000
0.46200  4.783370  2.032493
0.46400  4.806455  2.032466
0.46600  4.830705  2.031654
0.46800  4.856269  2.029787
0.47000  4.883300  2.026600
0.47200  4.913867  2.021348
0.47400  4.945719  2.014360
0.47600  4.978529  2.005488
0.47800  5.011966  1.994584
0.48000  5.045700  1.981500
0.48200  5.079457  1.965006
0.48400  5.112839  1.946307
0.48600  5.145502  1.925525
0.48800  5.177103  1.902782
0.49000  5.207300  1.878200
0.49200  5.233701  1.850795
0.49400  5.258523  1.822074
0.49600  5.281933  1.792435
0.49800  5.304103  1.762277
0.50000  5.325200  1.732000
0.50200  5.344896  1.704458
0.50400  5.363983  1.676981
0.50600  5.382750  1.649355
0.50800  5.401491  1.621366
0.51000  5.420500  1.592800
0.51200  5.442443  1.564212
0.51400  5.464645  1.534426
0.51600  5.486806  1.503034
0.51800  5.508625  1.469627
0.52000  5.529800  1.433800
0.52200  5.551587  1.392322
0.52400  5.571739  1.348315
0.52600  5.589569  1.302076
0.52800  5.604386  1.253905
0.53000  5.615500  1.204100
0.53200  5.618159  1.151044
0.53400  5.616751  1.097431
0.53600  5.611605  1.044033
0.53800  5.603046  0.991632
0.54000  5.591400  0.941000
0.54200  5.576774  0.896252
0.54400  5.559769  0.853994
0.54600  5.540767  0.814171
0.54800  5.520151  0.776726
0.55000  5.498300  0.741600
0.55200  5.476024  0.708836
0.55400  5.453170  0.678253
0.55600  5.430015  0.649775
0.55800  5.406833  0.623317
0.56000  5.383900  0.598800
0.56200  5.363194  0.576662
0.56400  5.342861  0.556173
0.56600  5.322752  0.537123
0.56800  5.302714  0.519302
0.57000  5.282600  0.502500
0.57200  5.260602  0.485565
0.57400  5.238641  0.469462
0.57600  5.216979  0.454218
0.57800  5.195877  0.439855
0.58000  5.175600  0.426400
0.58200  5.157989  0.414529
0.58400  5.141334  0.403453
0.58600  5.125505  0.393031
0.58800  5.110371  0.383126
0.59000  5.095800  0.373600
0.59200  5.081306  0.363638
0.59400  5.067201  0.353947
0.59600  5.053443  0.344557
0.59800  5.039991  0.335498
0.60000  5.026800  0.326800
0.60200  5.013593  0.318757
0.60400  5.000623  0.311071
0.60600  4.987906  0.303706
0.60800  4.975460  0.296627
0.61000  4.963300  0.289800
0.61200  4.951948  0.283109
0.61400  4.940790  0.276618
0.61600  4.929718  0.270314
0.61800  4.918625  0.264179
0.62000  4.907400  0.258200
0.62200  4.894828  0.252070
0.62400  4.882184  0.246137
0.62600  4.869636  0.240459
0.62800  4.857352  0.235094
0.63000  4.845500  0.230100
0.63200  4.835384  0.226132
0.63400  4.825752  0.222500
0.63600  4.816488  0.219112
0.63800  4.807476  0.215876
0.64000  4.798600  0.212700
0.64200  4.789088  0.208993
0.64400  4.779644  0.205286
0.64600  4.770316  0.201614
0.64800  4.761152  0.198007
0.65000  4.752200  0.194500
0.65200  4.743771  0.191291
0.65400  4.735583  0.188206
0.65600  4.727621  0.185234
0.65800  4.719866  0.182369
0.66000  4.712300  0.179600
0.66200  4.704957  0.176756
0.66400  4.697757  0.174032
0.66600  4.690667  0.171460
0.66800  4.683659  0.169072
0.67000  4.676700  0.166900
0.67200  4.669458  0.165389
0.67400  4.662281  0.164054
0.67600  4.655215  0.162826
0.67800  4.648306  0.161631
0.68000  4.641600  0.160400
0.68200  4.635430  0.158686
0.68400  4.629481  0.156887
0.68600  4.623727  0.155025
0.68800  4.618142  0.153122
0.69000  4.612700  0.151200
0.69200  4.607338  0.149433
0.69400  4.602075  0.147654
0.69600  4.596893  0.145850
0.69800  4.591774  0.144003
0.70000  4.586700  0.142100
0.70200  4.581715  0.139981
0.70400  4.576725  0.137810
0.70600  4.571698  0.135610
0.70800  4.566601  0.133399
0.71000  4.561400  0.131200
0.71200  4.555465  0.129026
0.71400  4.549510  0.126907
0.71600  4.543653  0.124865
0.71800  4.538012  0.122922
0.72000  4.532700  0.121100
0.72200  4.528583  0.119707
0.72400  4.524844  0.118410
0.72600  4.521413  0.117158
0.72800  4.518222  0.115905
0.73000  4.515200  0.114600
0.73200  4.512247  0.113010
0.73400  4.509331  0.111317
0.73600  4.506393  0.109519
0.73800  4.503369  0.107614
0.74000  4.500200  0.105600
0.74200  4.496416  0.103314
0.74400  4.492464  0.100953
0.74600  4.488384  0.098555
0.74800  4.484216  0.096158
0.75000  4.480000  0.093800
0.75200  4.475981  0.091732
0.75400  4.471942  0.089724
0.75600  4.467874  0.087760
0.75800  4.463763  0.085824
0.76000  4.459600  0.083900
0.76200  4.455145  0.081822
0.76400  4.450673  0.079761
0.76600  4.446227  0.077739
0.76800  4.441854  0.075778
0.77000  4.437600  0.073900
0.77200  4.433743  0.072289
0.77400  4.430037  0.070762
0.77600  4.426470  0.069302
0.77800  4.423029  0.067887
0.78000  4.419700  0.066500
0.78200  4.416491  0.065082
0.78400  4.413363  0.063663
0.78600  4.410301  0.062233
0.78800  4.407286  0.060782
0.79000  4.404300  0.059300
0.79200  4.401134  0.057791
0.79400  4.398012  0.056230
0.79600  4.394961  0.054602
0.79800  4.392014  0.052897
0.80000  4.389200  0.051100
0.80200  4.387274  0.048790
0.80400  4.385361  0.046465
0.80600  4.383311  0.044215
0.80800  4.380974  0.042130
0.81000  4.378200  0.040300
0.81200  4.373263  0.039642
0.81400  4.367981  0.039211
0.81600  4.362598  0.038889
0.81800  4.357357  0.038558
0.82000  4.352500  0.038100
0.82200  4.350975  0.036746
0.82400  4.349646  0.035193
0.82600  4.348079  0.033487
0.82800  4.345841  0.031674
0.83000  4.342500  0.029800
0.83200  4.337623  0.027910
0.83400  4.330778  0.026049
0.83600  4.321530  0.024263
0.83800  4.309448  0.022598
0.84000  4.294100  0.021100
