; From SOPRA S.A. http://www.sopra-sa.com/indices.htm
; Filename    Symbol               Range (nm)     Description
; SI28GE72    Si0.28Ge0.74        240      840    Silicon Germanium alloy (28% Si)
; lambda/um       n         k
0.24000  1.655400  3.143700
0.24200  1.633700  3.176100
0.24400  1.636100  3.221000
0.24600  1.661200  3.270500
0.24800  1.674400  3.333100
0.25000  1.690800  3.384600
0.25200  1.723900  3.450500
0.25400  1.765800  3.514600
0.25600  1.782600  3.572800
0.25800  1.820600  3.638000
0.26000  1.866300  3.715300
0.26200  1.905600  3.792000
0.26400  1.953100  3.863500
0.26600  2.008400  3.945100
0.26800  2.080800  4.030800
0.27000  2.145300  4.115300
0.27200  2.237100  4.211500
0.27400  2.348400  4.306800
0.27600  2.458600  4.398100
0.27800  2.600600  4.481900
0.28000  2.773500  4.571400
0.28200  2.975200  4.630900
0.28400  3.200600  4.650100
0.28600  3.425200  4.623100
0.28800  3.669600  4.545700
0.29000  3.846100  4.431700
0.29200  3.995800  4.298200
0.29400  4.102800  4.155000
0.29600  4.200800  4.008900
0.29800  4.245300  3.887000
0.30000  4.285700  3.767200
0.30200  4.324919  3.654275
0.30400  4.346700  3.556100
0.30600  4.356381  3.470125
0.30800  4.359300  3.393800
0.31000  4.362556  3.323750
0.31200  4.366200  3.259900
0.31400  4.374249  3.200906
0.31600  4.381900  3.147200
0.31800  4.383975  3.099507
0.32000  4.385600  3.055600
0.32200  4.391737  3.013412
0.32400  4.397700  2.973200
0.32600  4.399106  2.934294
0.32800  4.400000  2.897400
0.33000  4.403019  2.863100
0.33200  4.408000  2.831100
0.33400  4.417144  2.801300
0.33600  4.426000  2.773700
0.33800  4.429150  2.748612
0.34000  4.431700  2.725000
0.34200  4.437919  2.701831
0.34400  4.444900  2.679400
0.34600  4.450313  2.657875
0.34800  4.456700  2.636600
0.35000  4.466675  2.614581
0.35200  4.477700  2.593000
0.35400  4.487906  2.572725
0.35600  4.497900  2.553700
0.35800  4.507268  2.536712
0.36000  4.517200  2.520100
0.36200  4.529025  2.502519
0.36400  4.541900  2.483800
0.36600  4.555619  2.462893
0.36800  4.569600  2.441100
0.37000  4.583100  2.419875
0.37200  4.596400  2.397700
0.37400  4.610081  2.372662
0.37600  4.622500  2.347400
0.37800  4.631450  2.324931
0.38000  4.639200  2.302200
0.38200  4.647757  2.276225
0.38400  4.655700  2.249800
0.38600  4.662262  2.225262
0.38800  4.667500  2.201000
0.39000  4.671250  2.175688
0.39200  4.673400  2.150800
0.39400  4.673737  2.127213
0.39600  4.672400  2.105400
0.39800  4.669019  2.086319
0.40000  4.664900  2.069400
0.40200  4.661400  2.054287
0.40400  4.658000  2.041300
0.40600  4.654188  2.031094
0.40800  4.651300  2.022300
0.41000  4.650925  2.013300
0.41200  4.651800  2.005500
0.41400  4.653093  2.000237
0.41600  4.655100  1.996100
0.41800  4.657831  1.992362
0.42000  4.661300  1.988300
0.42200  4.667258  1.987045
0.42400  4.674197  1.985974
0.42600  4.682147  1.985002
0.42800  4.691139  1.984039
0.43000  4.701200  1.983000
0.43200  4.712362  1.981797
0.43400  4.724653  1.980343
0.43600  4.738103  1.978550
0.43800  4.752742  1.976331
0.44000  4.768600  1.973600
0.44200  4.786061  1.970029
0.44400  4.804710  1.965830
0.44600  4.824490  1.960978
0.44800  4.845339  1.955443
0.45000  4.867200  1.949200
0.45200  4.890041  1.942698
0.45400  4.913769  1.935313
0.45600  4.938315  1.926899
0.45800  4.963614  1.917310
0.46000  4.989600  1.906400
0.46200  5.016942  1.894002
0.46400  5.044652  1.879995
0.46600  5.072483  1.864237
0.46800  5.100183  1.846586
0.47000  5.127500  1.826900
0.47200  5.153894  1.803182
0.47400  5.179479  1.777611
0.47600  5.204077  1.750509
0.47800  5.227509  1.722198
0.48000  5.249600  1.693000
0.48200  5.268132  1.664125
0.48400  5.285476  1.634786
0.48600  5.301964  1.605086
0.48800  5.317928  1.575123
0.49000  5.333700  1.545000
0.49200  5.351423  1.517262
0.49400  5.369165  1.488953
0.49600  5.386806  1.459563
0.49800  5.404225  1.428583
0.50000  5.421300  1.395500
0.50200  5.439876  1.356222
0.50400  5.457376  1.314716
0.50600  5.473188  1.271371
0.50800  5.486700  1.226570
0.51000  5.497300  1.180700
0.51200  5.500878  1.133786
0.51400  5.501195  1.086665
0.51600  5.498513  1.039811
0.51800  5.493093  0.993696
0.52000  5.485200  0.948800
0.52200  5.475513  0.907403
0.52400  5.463772  0.867721
0.52600  5.450135  0.829778
0.52800  5.434758  0.793596
0.53000  5.417800  0.759200
0.53200  5.398867  0.726841
0.53400  5.378806  0.696257
0.53600  5.357910  0.667411
0.53800  5.336477  0.640271
0.54000  5.314800  0.614800
0.54200  5.294068  0.591299
0.54400  5.273460  0.569315
0.54600  5.253048  0.548733
0.54800  5.232904  0.529434
0.55000  5.213100  0.511300
0.55200  5.194047  0.493898
0.55400  5.175394  0.477505
0.55600  5.157126  0.462083
0.55800  5.139232  0.447594
0.56000  5.121700  0.434000
0.56200  5.104534  0.421767
0.56400  5.087699  0.410226
0.56600  5.071177  0.399211
0.56800  5.054949  0.388557
0.57000  5.039000  0.378100
0.57200  5.022865  0.366465
0.57400  5.007085  0.355001
0.57600  4.991751  0.343843
0.57800  4.976958  0.333130
0.58000  4.962800  0.323000
0.58200  4.950422  0.314578
0.58400  4.938603  0.306767
0.58600  4.927173  0.299457
0.58800  4.915961  0.292538
0.59000  4.904800  0.285900
0.59200  4.892536  0.278948
0.59400  4.880228  0.272180
0.59600  4.867952  0.265608
0.59800  4.855784  0.259244
0.60000  4.843800  0.253100
0.60200  4.832236  0.247323
0.60400  4.820968  0.241755
0.60600  4.810032  0.236377
0.60800  4.799464  0.231166
0.61000  4.789300  0.226100
0.61200  4.780347  0.221117
0.61400  4.771677  0.216246
0.61600  4.763134  0.211478
0.61800  4.754561  0.206799
0.62000  4.745800  0.202200
0.62200  4.735348  0.197538
0.62400  4.724732  0.192965
0.62600  4.714132  0.188503
0.62800  4.703728  0.184174
0.63000  4.693700  0.180000
0.63200  4.685405  0.176296
0.63400  4.677553  0.172716
0.63600  4.670027  0.169208
0.63800  4.662714  0.165720
0.64000  4.655500  0.162200
0.64200  4.647709  0.158135
0.64400  4.639928  0.154050
0.64600  4.632183  0.150006
0.64800  4.624498  0.146069
0.65000  4.616900  0.142300
0.65200  4.609484  0.139195
0.65400  4.602188  0.136278
0.65600  4.595020  0.133502
0.65800  4.587988  0.130825
0.66000  4.581100  0.128200
0.66200  4.574444  0.125276
0.66400  4.567928  0.122392
0.66600  4.561540  0.119580
0.66800  4.555268  0.116872
0.67000  4.549100  0.114300
0.67200  4.542960  0.112264
0.67400  4.536916  0.110336
0.67600  4.530972  0.108456
0.67800  4.525132  0.106564
0.68000  4.519400  0.104600
0.68200  4.514020  0.102136
0.68400  4.508696  0.099572
0.68600  4.503372  0.096940
0.68800  4.497992  0.094272
0.69000  4.492500  0.091600
0.69200  4.486264  0.089036
0.69400  4.479948  0.086512
0.69600  4.473640  0.084040
0.69800  4.467428  0.081632
0.70000  4.461400  0.079300
0.70200  4.456277  0.077242
0.70400  4.451356  0.075237
0.70600  4.446567  0.073251
0.70800  4.441838  0.071250
0.71000  4.437100  0.069200
0.71200  4.432032  0.066518
0.71400  4.426876  0.063855
0.71600  4.421624  0.061313
0.71800  4.416268  0.058994
0.72000  4.410800  0.057000
0.72200  4.405689  0.056254
0.72400  4.400331  0.055833
0.72600  4.394598  0.055635
0.72800  4.388363  0.055558
0.73000  4.381500  0.055500
0.73200  4.371807  0.054734
0.73400  4.361750  0.053937
0.73600  4.351718  0.053163
0.73800  4.342105  0.052466
0.74000  4.333300  0.051900
0.74200  4.327903  0.051924
0.74400  4.323546  0.052084
0.74600  4.320066  0.052332
0.74800  4.317305  0.052620
0.75000  4.315100  0.052900
0.75200  4.313250  0.053076
0.75400  4.311645  0.053160
0.75600  4.310135  0.053116
0.75800  4.308570  0.052908
0.76000  4.306800  0.052500
0.76200  4.303912  0.051469
0.76400  4.300708  0.050262
0.76600  4.297228  0.048942
0.76800  4.293512  0.047567
0.77000  4.289600  0.046200
0.77200  4.285234  0.045042
0.77400  4.280827  0.043977
0.77600  4.276493  0.043031
0.77800  4.272346  0.042230
0.78000  4.268500  0.041600
0.78200  4.265867  0.041422
0.78400  4.263566  0.041401
0.78600  4.261510  0.041499
0.78800  4.259617  0.041678
0.79000  4.257800  0.041900
0.79200  4.255505  0.042158
0.79400  4.253234  0.042373
0.79600  4.251021  0.042499
0.79800  4.248899  0.042490
0.80000  4.246900  0.042300
0.80200  4.245745  0.041501
0.80400  4.244606  0.040522
0.80600  4.243346  0.039414
0.80800  4.241823  0.038223
0.81000  4.239900  0.037000
0.81200  4.235901  0.035908
0.81400  4.231606  0.034852
0.81600  4.227262  0.033852
0.81800  4.223111  0.032928
0.82000  4.219400  0.032100
0.82200  4.219387  0.031286
0.82400  4.219550  0.030633
0.82600  4.219378  0.030187
0.82800  4.218365  0.029994
0.83000  4.216000  0.030100
0.83200  4.211775  0.030550
0.83400  4.205182  0.031389
0.83600  4.195711  0.032663
0.83800  4.182853  0.034418
0.84000  4.166100  0.036700
