; From SOPRA S.A. http://www.sopra-sa.com/indices.htm
; Filename    Symbol               Range (nm)     Description
; SI65GE35    Si0.65Ge0.35        240      840    Silicon Germanium alloy (65% Si)
; lambda/um       n         k
0.24000  1.571900  3.270600
0.24200  1.576200  3.303600
0.24400  1.600600  3.350700
0.24600  1.616000  3.392700
0.24800  1.634900  3.462900
0.25000  1.655000  3.510200
0.25200  1.675200  3.571900
0.25400  1.709800  3.637800
0.25600  1.736900  3.705400
0.25800  1.768600  3.776800
0.26000  1.803200  3.848300
0.26200  1.855700  3.933800
0.26400  1.914600  4.011300
0.26600  1.968300  4.105600
0.26800  2.029800  4.187800
0.27000  2.127800  4.289500
0.27200  2.214300  4.385000
0.27400  2.323300  4.485600
0.27600  2.441000  4.585300
0.27800  2.597900  4.671200
0.28000  2.777600  4.762500
0.28200  2.987600  4.831900
0.28400  3.203400  4.870000
0.28600  3.466200  4.862200
0.28800  3.697200  4.791600
0.29000  3.916300  4.683600
0.29200  4.092500  4.541600
0.29400  4.232300  4.381400
0.29600  4.333600  4.228200
0.29800  4.398400  4.086200
0.30000  4.442800  3.953900
0.30200  4.479724  3.833019
0.30400  4.503000  3.727000
0.30600  4.516325  3.633981
0.30800  4.523400  3.552100
0.31000  4.528606  3.479537
0.31200  4.533600  3.414300
0.31400  4.542469  3.353637
0.31600  4.552300  3.298000
0.31800  4.561412  3.246701
0.32000  4.570200  3.200400
0.32200  4.578137  3.160812
0.32400  4.586300  3.124100
0.32600  4.595681  3.086306
0.32800  4.606000  3.049500
0.33000  4.617813  3.013919
0.33200  4.629600  2.981100
0.33400  4.639681  2.953406
0.33600  4.649100  2.928600
0.33800  4.657262  2.905919
0.34000  4.667400  2.883300
0.34200  4.684650  2.856581
0.34400  4.702700  2.831300
0.34600  4.715181  2.813219
0.34800  4.727400  2.797500
0.35000  4.742500  2.781162
0.35200  4.760600  2.764400
0.35400  4.784187  2.745344
0.35600  4.809300  2.727200
0.35800  4.831625  2.713906
0.36000  4.854700  2.701400
0.36200  4.880825  2.686563
0.36400  4.909400  2.670500
0.36600  4.940906  2.653400
0.36800  4.974400  2.634900
0.37000  5.009300  2.614675
0.37200  5.045000  2.592800
0.37400  5.080532  2.569331
0.37600  5.116400  2.544000
0.37800  5.152550  2.516956
0.38000  5.189700  2.487000
0.38200  5.229669  2.451612
0.38400  5.269100  2.414900
0.38600  5.304637  2.381000
0.38800  5.338100  2.347300
0.39000  5.369587  2.312856
0.39200  5.400900  2.276800
0.39400  5.433993  2.237656
0.39600  5.468500  2.196300
0.39800  5.504988  2.153812
0.40000  5.542600  2.108100
0.40200  5.581193  2.056744
0.40400  5.619200  2.001800
0.40600  5.654931  1.945057
0.40800  5.688600  1.884900
0.41000  5.720144  1.819919
0.41200  5.748700  1.751300
0.41400  5.773818  1.679163
0.41600  5.794200  1.605300
0.41800  5.808756  1.531087
0.42000  5.816400  1.457900
0.42200  5.819622  1.372219
0.42400  5.816849  1.290346
0.42600  5.808535  1.212263
0.42800  5.795135  1.137953
0.43000  5.777100  1.067400
0.43200  5.754886  1.000587
0.43400  5.728945  0.937498
0.43600  5.699731  0.878115
0.43800  5.667698  0.822421
0.44000  5.633300  0.770400
0.44200  5.596775  0.722538
0.44400  5.558845  0.678189
0.44600  5.520018  0.637211
0.44800  5.480800  0.599462
0.45000  5.441700  0.564800
0.45200  5.404861  0.533411
0.45400  5.368745  0.504742
0.45600  5.333447  0.478566
0.45800  5.299066  0.454661
0.46000  5.265700  0.432800
0.46200  5.234156  0.412519
0.46400  5.203644  0.393894
0.46600  5.174084  0.376759
0.46800  5.145396  0.360949
0.47000  5.117500  0.346300
0.47200  5.089785  0.332404
0.47400  5.062834  0.319400
0.47600  5.036701  0.307184
0.47800  5.011439  0.295652
0.48000  4.987100  0.284700
0.48200  4.964255  0.273843
0.48400  4.942310  0.263454
0.48600  4.921187  0.253522
0.48800  4.900809  0.244041
0.49000  4.881100  0.235000
0.49200  4.862025  0.226446
0.49400  4.843455  0.218301
0.49600  4.825302  0.210543
0.49800  4.807479  0.203150
0.50000  4.789900  0.196100
0.50200  4.771926  0.189175
0.50400  4.754159  0.182595
0.50600  4.736649  0.176389
0.50800  4.719445  0.170582
0.51000  4.702600  0.165200
0.51200  4.686159  0.160722
0.51400  4.670177  0.156609
0.51600  4.654706  0.152775
0.51800  4.639797  0.149134
0.52000  4.625500  0.145600
0.52200  4.612686  0.141554
0.52400  4.600383  0.137575
0.52600  4.588437  0.133709
0.52800  4.576694  0.130002
0.53000  4.565000  0.126500
0.53200  4.552166  0.123644
0.53400  4.539333  0.120988
0.53600  4.526608  0.118480
0.53800  4.514095  0.116068
0.54000  4.501900  0.113700
0.54200  4.490789  0.111039
0.54400  4.480042  0.108390
0.54600  4.469602  0.105770
0.54800  4.459407  0.103201
0.55000  4.449400  0.100700
0.55200  4.439127  0.098396
0.55400  4.429022  0.096172
0.55600  4.419123  0.094020
0.55800  4.409469  0.091932
0.56000  4.400100  0.089900
0.56200  4.391542  0.087903
0.56400  4.383225  0.085950
0.56600  4.375067  0.084034
0.56800  4.366986  0.082153
0.57000  4.358900  0.080300
0.57200  4.350175  0.078378
0.57400  4.341417  0.076499
0.57600  4.332682  0.074681
0.57800  4.324024  0.072942
0.58000  4.315500  0.071300
0.58200  4.307275  0.069957
0.58400  4.299265  0.068702
0.58600  4.291498  0.067510
0.58800  4.284001  0.066351
0.59000  4.276800  0.065200
0.59200  4.270336  0.063882
0.59400  4.264120  0.062553
0.59600  4.258076  0.061223
0.59800  4.252128  0.059902
0.60000  4.246200  0.058600
0.60200  4.239902  0.057402
0.60400  4.233552  0.056223
0.60600  4.227149  0.055053
0.60800  4.220698  0.053882
0.61000  4.214200  0.052700
0.61200  4.207495  0.051281
0.61400  4.200789  0.049886
0.61600  4.194127  0.048562
0.61800  4.187549  0.047351
0.62000  4.181100  0.046300
0.62200  4.174999  0.045754
0.62400  4.169069  0.045381
0.62600  4.163311  0.045151
0.62800  4.157721  0.045034
0.63000  4.152300  0.045000
0.63200  4.147082  0.044998
0.63400  4.142023  0.045023
0.63600  4.137113  0.045049
0.63800  4.132341  0.045050
0.64000  4.127700  0.045000
0.64200  4.123153  0.044666
0.64400  4.118722  0.044283
0.64600  4.114406  0.043877
0.64800  4.110199  0.043474
0.65000  4.106100  0.043100
0.65200  4.102130  0.043006
0.65400  4.098255  0.042939
0.65600  4.094465  0.042869
0.65800  4.090750  0.042766
0.66000  4.087100  0.042600
0.66200  4.083494  0.042176
0.66400  4.079937  0.041672
0.66600  4.076423  0.041100
0.66800  4.072947  0.040472
0.67000  4.069500  0.039800
0.67200  4.066033  0.039128
0.67400  4.062594  0.038428
0.67600  4.059189  0.037704
0.67800  4.055823  0.036960
0.68000  4.052500  0.036200
0.68200  4.049455  0.035434
0.68400  4.046405  0.034659
0.68600  4.043298  0.033877
0.68800  4.040081  0.033090
0.69000  4.036700  0.032300
0.69200  4.032489  0.031485
0.69400  4.028162  0.030678
0.69600  4.023821  0.029890
0.69800  4.019567  0.029127
0.70000  4.015500  0.028400
0.70200  4.012444  0.027806
0.70400  4.009596  0.027243
0.70600  4.006876  0.026697
0.70800  4.004204  0.026154
0.71000  4.001500  0.025600
0.71200  3.998268  0.024850
0.71400  3.994948  0.024105
0.71600  3.991564  0.023395
0.71800  3.988140  0.022750
0.72000  3.984700  0.022200
0.72200  3.981310  0.022007
0.72400  3.977941  0.021910
0.72600  3.974607  0.021878
0.72800  3.971323  0.021885
0.73000  3.968100  0.021900
0.73200  3.964886  0.021770
0.73400  3.961779  0.021623
0.73600  3.958809  0.021461
0.73800  3.956006  0.021286
0.74000  3.953400  0.021100
0.74200  3.951365  0.020903
0.74400  3.949502  0.020702
0.74600  3.947758  0.020498
0.74800  3.946075  0.020297
0.75000  3.944400  0.020100
0.75200  3.942494  0.020001
0.75400  3.940531  0.019890
0.75600  3.938501  0.019750
0.75800  3.936393  0.019559
0.76000  3.934200  0.019300
0.76200  3.931802  0.018735
0.76400  3.929325  0.018118
0.76600  3.926787  0.017482
0.76800  3.924206  0.016865
0.77000  3.921600  0.016300
0.77200  3.918934  0.015993
0.77400  3.916291  0.015766
0.77600  3.913701  0.015614
0.77800  3.911194  0.015527
0.78000  3.908800  0.015500
0.78200  3.906810  0.015618
0.78400  3.904929  0.015757
0.78600  3.903123  0.015887
0.78800  3.901359  0.015978
0.79000  3.899600  0.016000
0.79200  3.897436  0.015637
0.79400  3.895304  0.015214
0.79600  3.893264  0.014774
0.79800  3.891376  0.014355
0.80000  3.889700  0.014000
0.80200  3.889224  0.013928
0.80400  3.888848  0.013956
0.80600  3.888400  0.014080
0.80800  3.887708  0.014296
0.81000  3.886600  0.014600
0.81200  3.883310  0.015177
0.81400  3.879659  0.015786
0.81600  3.875873  0.016378
0.81800  3.872177  0.016899
0.82000  3.868800  0.017300
0.82200  3.867829  0.017209
0.82400  3.867162  0.016974
0.82600  3.866562  0.016626
0.82800  3.865787  0.016191
0.83000  3.864600  0.015700
0.83200  3.862761  0.015181
0.83400  3.860030  0.014662
0.83600  3.856170  0.014174
0.83800  3.850939  0.013743
0.84000  3.844100  0.013400
