; From SOPRA S.A. http://www.sopra-sa.com/indices.htm
; Filename    Symbol               Range (nm)     Description
; SI85GE15    Si0.85Ge0.15        240      840    Silicon Germanium alloy (85% Si)
; lambda/um       n         k
0.24000  1.648700  3.404100
0.24200  1.659200  3.446400
0.24400  1.663700  3.491200
0.24600  1.672400  3.541800
0.24800  1.682600  3.596100
0.25000  1.712300  3.657200
0.25200  1.740300  3.723900
0.25400  1.755800  3.817900
0.25600  1.787200  3.879100
0.25800  1.822900  3.964200
0.26000  1.863800  4.059500
0.26200  1.918300  4.163700
0.26400  1.965900  4.255100
0.26600  2.036900  4.367500
0.26800  2.118900  4.486800
0.27000  2.212500  4.602200
0.27200  2.334200  4.731400
0.27400  2.495500  4.855600
0.27600  2.654300  4.968600
0.27800  2.843100  5.063100
0.28000  3.066100  5.149200
0.28200  3.301700  5.212100
0.28400  3.560700  5.235600
0.28600  3.840000  5.220800
0.28800  4.160900  5.144900
0.29000  4.422200  4.988600
0.29200  4.621500  4.793700
0.29400  4.757800  4.587400
0.29600  4.870600  4.382500
0.29800  4.916600  4.197600
0.30000  4.949800  4.038300
0.30200  4.971475  3.898438
0.30400  4.980100  3.777400
0.30600  4.980250  3.672737
0.30800  4.976500  3.582000
0.31000  4.975025  3.502456
0.31200  4.975600  3.432500
0.31400  4.981112  3.370169
0.31600  4.988400  3.313800
0.31800  4.994187  3.261088
0.32000  5.001700  3.212000
0.32200  5.014268  3.165712
0.32400  5.028300  3.122300
0.32600  5.040462  3.081419
0.32800  5.053300  3.043500
0.33000  5.068344  3.009550
0.33200  5.085300  2.977500
0.33400  5.105231  2.944687
0.33600  5.125600  2.913900
0.33800  5.143019  2.888337
0.34000  5.161100  2.864100
0.34200  5.182806  2.836644
0.34400  5.206700  2.811100
0.34600  5.231594  2.792950
0.34800  5.259700  2.776600
0.35000  5.292950  2.757550
0.35200  5.331000  2.738000
0.35400  5.373944  2.719094
0.35600  5.422400  2.699500
0.35800  5.477562  2.678625
0.36000  5.537800  2.655400
0.36200  5.601099  2.629950
0.36400  5.669800  2.598100
0.36600  5.746837  2.556500
0.36800  5.828400  2.502800
0.37000  5.913094  2.432831
0.37200  5.996600  2.348700
0.37400  6.076151  2.251399
0.37600  6.145700  2.140100
0.37800  6.197769  2.011300
0.38000  6.233900  1.874000
0.38200  6.252050  1.734200
0.38400  6.255500  1.597400
0.38600  6.246437  1.472837
0.38800  6.226100  1.355300
0.39000  6.195857  1.242107
0.39200  6.157500  1.134900
0.39400  6.112881  1.033875
0.39600  6.063200  0.940700
0.39800  6.009744  0.858044
0.40000  5.954100  0.783100
0.40200  5.898731  0.713481
0.40400  5.842300  0.650600
0.40600  5.783638  0.595463
0.40800  5.724700  0.546900
0.41000  5.666543  0.504500
0.41200  5.610700  0.467000
0.41400  5.559863  0.433000
0.41600  5.511600  0.402500
0.41800  5.464762  0.375150
0.42000  5.418200  0.350600
0.42200  5.363227  0.326177
0.42400  5.312945  0.304722
0.42600  5.266930  0.285950
0.42800  5.224757  0.269571
0.43000  5.186000  0.255300
0.43200  5.150235  0.242849
0.43400  5.117038  0.231931
0.43600  5.085983  0.222258
0.43800  5.056645  0.213543
0.44000  5.028600  0.205500
0.44200  4.999932  0.196446
0.44400  4.972080  0.187837
0.44600  4.944992  0.179735
0.44800  4.918616  0.172202
0.45000  4.892900  0.165300
0.45200  4.867148  0.159822
0.45400  4.842114  0.154915
0.45600  4.817906  0.150457
0.45800  4.794631  0.146326
0.46000  4.772400  0.142400
0.46200  4.752495  0.138222
0.46400  4.733558  0.134091
0.46600  4.715402  0.129969
0.46800  4.697845  0.125818
0.47000  4.680700  0.121600
0.47200  4.663002  0.116789
0.47400  4.645543  0.111958
0.47600  4.628333  0.107194
0.47800  4.611382  0.102579
0.48000  4.594700  0.098200
0.48200  4.578074  0.094662
0.48400  4.561795  0.091399
0.48600  4.545929  0.088365
0.48800  4.530541  0.085514
0.49000  4.515700  0.082800
0.49200  4.502178  0.080175
0.49400  4.489157  0.077598
0.49600  4.476527  0.075022
0.49800  4.464179  0.072405
0.50000  4.452000  0.069700
0.50200  4.439338  0.066338
0.50400  4.426761  0.062931
0.50600  4.414295  0.059565
0.50800  4.401966  0.056326
0.51000  4.389800  0.053300
0.51200  4.377946  0.051067
0.51400  4.366275  0.049098
0.51600  4.354781  0.047354
0.51800  4.343458  0.045801
0.52000  4.332300  0.044400
0.52200  4.320960  0.042530
0.52400  4.309860  0.040885
0.52600  4.299080  0.039575
0.52800  4.288700  0.038710
0.53000  4.278800  0.038400
0.53200  4.269934  0.040530
0.53400  4.261589  0.042989
0.53600  4.253727  0.045443
0.53800  4.246310  0.047558
0.54000  4.239300  0.049000
0.54200  4.233070  0.047069
0.54400  4.227067  0.044386
0.54600  4.221148  0.041210
0.54800  4.215174  0.037795
0.55000  4.209000  0.034400
0.55200  4.201485  0.032286
0.55400  4.193738  0.030453
0.55600  4.185870  0.028907
0.55800  4.177987  0.027654
0.56000  4.170200  0.026700
0.56200  4.163289  0.026418
0.56400  4.156522  0.026353
0.56600  4.149841  0.026419
0.56800  4.143187  0.026530
0.57000  4.136500  0.026600
0.57200  4.129036  0.026071
0.57400  4.121592  0.025446
0.57600  4.114280  0.024754
0.57800  4.107212  0.024029
0.58000  4.100500  0.023300
0.58200  4.095286  0.022740
0.58400  4.090395  0.022204
0.58600  4.085681  0.021688
0.58800  4.080997  0.021188
0.59000  4.076200  0.020700
0.59200  4.070141  0.020092
0.59400  4.063927  0.019520
0.59600  4.057662  0.019012
0.59800  4.051452  0.018596
0.60000  4.045400  0.018300
0.60200  4.040003  0.018632
0.60400  4.034878  0.019020
0.60600  4.030031  0.019372
0.60800  4.025469  0.019596
0.61000  4.021200  0.019600
0.61200  4.017842  0.018358
0.61400  4.014639  0.016945
0.61600  4.011445  0.015503
0.61800  4.008113  0.014174
0.62000  4.004500  0.013100
0.62200  3.998922  0.013625
0.62400  3.993155  0.014386
0.62600  3.987437  0.015226
0.62800  3.982005  0.015983
0.63000  3.977100  0.016500
0.63200  3.975144  0.015625
0.63400  3.973644  0.014438
0.63600  3.972292  0.013030
0.63800  3.970780  0.011487
0.64000  3.968800  0.009900
0.64200  3.963961  0.008597
0.64400  3.958558  0.007366
0.64600  3.952806  0.006238
0.64800  3.946915  0.005239
0.65000  3.941100  0.004400
0.65200  3.936539  0.003995
0.65400  3.932238  0.003746
0.65600  3.928166  0.003618
0.65800  3.924297  0.003581
0.66000  3.920600  0.003600
0.66200  3.916919  0.003426
0.66400  3.913386  0.003297
0.66600  3.910002  0.003235
0.66800  3.906773  0.003262
0.67000  3.903700  0.003400
0.67200  3.900992  0.004159
0.67400  3.898396  0.004950
0.67600  3.895864  0.005670
0.67800  3.893348  0.006221
0.68000  3.890800  0.006500
0.68200  3.888047  0.005412
0.68400  3.885198  0.004100
0.68600  3.882234  0.002712
0.68800  3.879141  0.001396
0.69000  3.875900  0.000300
0.69200  3.872038  0.000372
0.69400  3.868109  0.000760
0.69600  3.864211  0.001412
0.69800  3.860442  0.002276
0.70000  3.856900  0.003300
0.70200  3.854440  0.004374
0.70400  3.852212  0.005519
0.70600  3.850124  0.006697
0.70800  3.848084  0.007870
0.71000  3.846000  0.009000
0.71200  3.842871  0.010057
0.71400  3.839742  0.010994
0.71600  3.836746  0.011774
0.71800  3.834021  0.012355
0.72000  3.831700  0.012700
0.72200  3.831340  0.012289
0.72400  3.831300  0.011682
0.72600  3.831360  0.010962
0.72800  3.831300  0.010207
0.73000  3.830900  0.009500
0.73200  3.828545  0.009343
0.73400  3.825758  0.009290
0.73600  3.822670  0.009314
0.73800  3.819407  0.009393
0.74000  3.816100  0.009500
0.74200  3.813370  0.009477
0.74400  3.810729  0.009466
0.74600  3.808183  0.009478
0.74800  3.805738  0.009519
0.75000  3.803400  0.009600
0.75200  3.801257  0.009914
0.75400  3.799210  0.010239
0.75600  3.797246  0.010537
0.75800  3.795347  0.010770
0.76000  3.793500  0.010900
0.76200  3.791554  0.010500
0.76400  3.789663  0.010020
0.76600  3.787845  0.009520
0.76800  3.786117  0.009060
0.77000  3.784500  0.008700
0.77200  3.783231  0.008999
0.77400  3.782053  0.009394
0.77600  3.780931  0.009818
0.77800  3.779825  0.010209
0.78000  3.778700  0.010500
0.78200  3.777327  0.010109
0.78400  3.775910  0.009618
0.78600  3.774459  0.009094
0.78800  3.772985  0.008599
0.79000  3.771500  0.008200
0.79200  3.770003  0.008476
0.79400  3.768519  0.008848
0.79600  3.767065  0.009252
0.79800  3.765654  0.009624
0.80000  3.764300  0.009900
0.80200  3.763134  0.009504
0.80400  3.762025  0.009012
0.80600  3.760959  0.008488
0.80800  3.759922  0.007996
0.81000  3.758900  0.007600
0.81200  3.757705  0.007879
0.81400  3.756538  0.008254
0.81600  3.755430  0.008658
0.81800  3.754407  0.009029
0.82000  3.753500  0.009300
0.82200  3.752970  0.009020
0.82400  3.752555  0.008608
0.82600  3.752225  0.008096
0.82800  3.751950  0.007516
0.83000  3.751700  0.006900
0.83200  3.751446  0.006280
0.83400  3.751159  0.005688
0.83600  3.750809  0.005156
0.83800  3.750365  0.004716
0.84000  3.749800  0.004400
