; From SOPRA S.A. http://www.sopra-sa.com/indices.htm
; Filename    Symbol               Range (nm)     Description
; SI98GE02    Si0.98Ge0.02        240      840    Silicon Germanium alloy (98% Si)
; lambda/um       n         k
0.24000  1.619700  3.403800
0.24200  1.618700  3.434400
0.24400  1.640800  3.464200
0.24600  1.634800  3.538400
0.24800  1.643200  3.596200
0.25000  1.667800  3.650300
0.25200  1.686600  3.726900
0.25400  1.711300  3.815700
0.25600  1.723200  3.883600
0.25800  1.758300  3.979700
0.26000  1.796400  4.077500
0.26200  1.843000  4.187300
0.26400  1.885800  4.299700
0.26600  1.970500  4.423000
0.26800  2.060300  4.551400
0.27000  2.164600  4.675700
0.27200  2.298800  4.808200
0.27400  2.469900  4.935000
0.27600  2.651800  5.040000
0.27800  2.848600  5.125700
0.28000  3.075600  5.195800
0.28200  3.307900  5.234200
0.28400  3.559300  5.251000
0.28600  3.815400  5.234400
0.28800  4.105600  5.177300
0.29000  4.361700  5.058800
0.29200  4.593400  4.890200
0.29400  4.754400  4.694300
0.29600  4.879800  4.486300
0.29800  4.949500  4.294800
0.30000  4.987000  4.126800
0.30200  5.017893  3.974938
0.30400  5.032000  3.846500
0.30600  5.034706  3.737612
0.30800  5.031400  3.644400
0.31000  5.029194  3.561869
0.31200  5.028300  3.489500
0.31400  5.032037  3.425650
0.31600  5.038200  3.368700
0.31800  5.045100  3.316269
0.32000  5.054500  3.269000
0.32200  5.068369  3.227569
0.32400  5.084400  3.189500
0.32600  5.100869  3.151775
0.32800  5.118000  3.116700
0.33000  5.134419  3.086293
0.33200  5.153200  3.058400
0.33400  5.178456  3.030125
0.33600  5.205700  3.005700
0.33800  5.229338  2.990425
0.34000  5.256800  2.978200
0.34200  5.295206  2.963900
0.34400  5.339900  2.949900
0.34600  5.387000  2.938256
0.34800  5.441300  2.924800
0.35000  5.507337  2.905725
0.35200  5.582000  2.882000
0.35400  5.664450  2.853112
0.35600  5.752400  2.819700
0.35800  5.841212  2.784575
0.36000  5.937100  2.740700
0.36200  6.046456  2.684069
0.36400  6.164100  2.608400
0.36600  6.290863  2.506862
0.36800  6.415100  2.377100
0.37000  6.530531  2.210900
0.37200  6.621900  2.019000
0.37400  6.670831  1.803830
0.37600  6.680400  1.582100
0.37800  6.642331  1.368793
0.38000  6.572300  1.171500
0.38200  6.478888  1.003950
0.38400  6.375100  0.862700
0.38600  6.279237  0.751844
0.38800  6.184000  0.662500
0.39000  6.086257  0.587694
0.39200  5.991800  0.525800
0.39400  5.906724  0.473156
0.39600  5.827000  0.428900
0.39800  5.750356  0.391263
0.40000  5.677600  0.359300
0.40200  5.608756  0.331756
0.40400  5.543900  0.307800
0.40600  5.483163  0.286163
0.40800  5.426400  0.266900
0.41000  5.373637  0.249725
0.41200  5.324500  0.234400
0.41400  5.279156  0.220625
0.41600  5.236000  0.208300
0.41800  5.193869  0.197275
0.42000  5.151600  0.187400
0.42200  5.107101  0.178130
0.42400  5.066501  0.169479
0.42600  5.029399  0.161413
0.42800  4.995399  0.153898
0.43000  4.964100  0.146900
0.43200  4.935105  0.140386
0.43400  4.908017  0.134323
0.43600  4.882435  0.128677
0.43800  4.857963  0.123414
0.44000  4.834200  0.118500
0.44200  4.808740  0.113848
0.44400  4.783696  0.109492
0.44600  4.759172  0.105412
0.44800  4.735272  0.101588
0.45000  4.712100  0.098000
0.45200  4.690444  0.094638
0.45400  4.669554  0.091469
0.45600  4.649362  0.088471
0.45800  4.629799  0.085622
0.46000  4.610800  0.082900
0.46200  4.592121  0.080080
0.46400  4.573915  0.077392
0.46600  4.556158  0.074864
0.46800  4.538827  0.072524
0.47000  4.521900  0.070400
0.47200  4.505318  0.068837
0.47400  4.489101  0.067466
0.47600  4.473235  0.066238
0.47800  4.457706  0.065099
0.48000  4.442500  0.064000
0.48200  4.427211  0.062716
0.48400  4.412314  0.061412
0.48600  4.397891  0.060080
0.48800  4.384025  0.058712
0.49000  4.370800  0.057300
0.49200  4.359246  0.055746
0.49400  4.348263  0.054155
0.49600  4.337697  0.052541
0.49800  4.327394  0.050918
0.50000  4.317200  0.049300
0.50200  4.306105  0.047648
0.50400  4.295026  0.046044
0.50600  4.284026  0.044516
0.50800  4.273163  0.043092
0.51000  4.262500  0.041800
0.51200  4.252375  0.040972
0.51400  4.242501  0.040256
0.51600  4.232871  0.039604
0.51800  4.223473  0.038968
0.52000  4.214300  0.038300
0.52200  4.205449  0.037187
0.52400  4.196778  0.036038
0.52600  4.188253  0.034894
0.52800  4.179839  0.033801
0.53000  4.171500  0.032800
0.53200  4.162856  0.032207
0.53400  4.154302  0.031726
0.53600  4.145891  0.031330
0.53800  4.137673  0.030997
0.54000  4.129700  0.030700
0.54200  4.122411  0.030265
0.54400  4.115371  0.029854
0.54600  4.108537  0.029482
0.54800  4.101862  0.029159
0.55000  4.095300  0.028900
0.55200  4.088439  0.028989
0.55400  4.081691  0.029098
0.55600  4.075105  0.029174
0.55800  4.068726  0.029159
0.56000  4.062600  0.029000
0.56200  4.057555  0.028193
0.56400  4.052661  0.027242
0.56600  4.047771  0.026206
0.56800  4.042733  0.025139
0.57000  4.037400  0.024100
0.57200  4.030221  0.023372
0.57400  4.022800  0.022728
0.57600  4.015339  0.022168
0.57800  4.008038  0.021692
0.58000  4.001100  0.021300
0.58200  3.995977  0.021027
0.58400  3.991306  0.020830
0.58600  3.986978  0.020698
0.58800  3.982879  0.020625
0.59000  3.978900  0.020600
0.59200  3.974474  0.020750
0.59400  3.970059  0.020897
0.59600  3.965657  0.020999
0.59800  3.961270  0.021014
0.60000  3.956900  0.020900
0.60200  3.952458  0.020194
0.60400  3.948061  0.019379
0.60600  3.943735  0.018517
0.60800  3.939507  0.017670
0.61000  3.935400  0.016900
0.61200  3.931896  0.016690
0.61400  3.928452  0.016577
0.61600  3.924980  0.016519
0.61800  3.921392  0.016474
0.62000  3.917600  0.016400
0.62200  3.912738  0.015956
0.62400  3.907691  0.015472
0.62600  3.902565  0.014980
0.62800  3.897465  0.014512
0.63000  3.892500  0.014100
0.63200  3.888264  0.013968
0.63400  3.884252  0.013908
0.63600  3.880448  0.013904
0.63800  3.876836  0.013940
0.64000  3.873400  0.014000
0.64200  3.870297  0.014106
0.64400  3.867294  0.014195
0.64600  3.864334  0.014241
0.64800  3.861355  0.014218
0.65000  3.858300  0.014100
0.65200  3.854456  0.013507
0.65400  3.850580  0.012858
0.65600  3.846776  0.012214
0.65800  3.843148  0.011641
0.66000  3.839800  0.011200
0.66200  3.837809  0.011451
0.66400  3.836062  0.011838
0.66600  3.834421  0.012298
0.66800  3.832747  0.012773
0.67000  3.830900  0.013200
0.67200  3.827861  0.013161
0.67400  3.824590  0.013042
0.67600  3.821170  0.012874
0.67800  3.817679  0.012683
0.68000  3.814200  0.012500
0.68200  3.811110  0.012548
0.68400  3.808119  0.012612
0.68600  3.805233  0.012672
0.68800  3.802457  0.012708
0.69000  3.799800  0.012700
0.69200  3.797407  0.012516
0.69400  3.795110  0.012276
0.69600  3.792878  0.011988
0.69800  3.790685  0.011660
0.70000  3.788500  0.011300
0.70200  3.786324  0.010727
0.70400  3.784092  0.010186
0.70600  3.781768  0.009730
0.70800  3.779316  0.009417
0.71000  3.776700  0.009300
0.71200  3.773260  0.010162
0.71400  3.769740  0.011149
0.71600  3.766260  0.012135
0.71800  3.762940  0.012994
0.72000  3.759900  0.013600
0.72200  3.758121  0.012760
0.72400  3.756646  0.011680
0.72600  3.755382  0.010500
0.72800  3.754231  0.009360
0.73000  3.753100  0.008400
0.73200  3.751509  0.008778
0.73400  3.749842  0.009361
0.73600  3.748102  0.010035
0.73800  3.746287  0.010686
0.74000  3.744400  0.011200
0.74200  3.742348  0.010636
0.74400  3.740248  0.009912
0.74600  3.738124  0.009120
0.74800  3.736000  0.008352
0.75000  3.733900  0.007700
0.75200  3.731966  0.007845
0.75400  3.730075  0.008142
0.75600  3.728221  0.008538
0.75800  3.726398  0.008975
0.76000  3.724600  0.009400
0.76200  3.722893  0.009478
0.76400  3.721183  0.009503
0.76600  3.719446  0.009489
0.76800  3.717659  0.009450
0.77000  3.715800  0.009400
0.77200  3.713394  0.009534
0.77400  3.710981  0.009641
0.77600  3.708651  0.009691
0.77800  3.706495  0.009654
0.78000  3.704600  0.009500
0.78200  3.703797  0.008900
0.78400  3.703250  0.008196
0.78600  3.702866  0.007432
0.78800  3.702547  0.006652
0.79000  3.702200  0.005900
0.79200  3.701284  0.005441
0.79400  3.700260  0.005042
0.79600  3.699144  0.004694
0.79800  3.697952  0.004383
0.80000  3.696700  0.004100
0.80200  3.695449  0.003753
0.80400  3.694159  0.003430
0.80600  3.692834  0.003142
0.80800  3.691479  0.002895
0.81000  3.690100  0.002700
0.81200  3.688038  0.002680
0.81400  3.686127  0.002700
0.81600  3.684537  0.002740
0.81800  3.683438  0.002780
0.82000  3.683000  0.002800
0.82200  3.686012  0.002607
0.82400  3.689372  0.002398
0.82600  3.692596  0.002194
0.82800  3.695200  0.002021
0.83000  3.696700  0.001900
0.83200  3.696612  0.001855
0.83400  3.694452  0.001910
0.83600  3.689736  0.002086
0.83800  3.681980  0.002409
0.84000  3.670700  0.002900
