; From SOPRA S.A. http://www.sopra-sa.com/indices.htm
; Filename    Symbol               Range (nm)     Description
; SIGE_SI     SiGe                240      840    Silicon Germanium alloy on Silicon
; lambda/um       n         k
0.24000  1.637800  3.233000
0.24200  1.637400  3.251300
0.24400  1.640500  3.259800
0.24600  1.657700  3.348000
0.24800  1.676100  3.405000
0.25000  1.687500  3.456800
0.25200  1.717200  3.510300
0.25400  1.767800  3.585200
0.25600  1.782500  3.646200
0.25800  1.825900  3.719000
0.26000  1.870500  3.781200
0.26200  1.905300  3.865500
0.26400  1.954400  3.943300
0.26600  2.018900  4.020500
0.26800  2.088000  4.111400
0.27000  2.154700  4.198300
0.27200  2.248100  4.298100
0.27400  2.356300  4.391300
0.27600  2.478100  4.481200
0.27800  2.608300  4.569700
0.28000  2.781900  4.657500
0.28200  2.975100  4.730100
0.28400  3.186900  4.754900
0.28600  3.425900  4.751000
0.28800  3.673400  4.688900
0.29000  3.879900  4.585200
0.29200  4.044500  4.452600
0.29400  4.170800  4.309600
0.29600  4.280500  4.158600
0.29800  4.332600  4.021100
0.30000  4.384200  3.897000
0.30200  4.423913  3.774119
0.30400  4.447500  3.670000
0.30600  4.459763  3.580781
0.30800  4.465500  3.502600
0.31000  4.471363  3.429850
0.31200  4.476600  3.363900
0.31400  4.482931  3.304794
0.31600  4.489600  3.250900
0.31800  4.496169  3.200663
0.32000  4.503400  3.153900
0.32200  4.512568  3.109812
0.32400  4.521700  3.068700
0.32600  4.528631  3.030850
0.32800  4.535200  2.995500
0.33000  4.542513  2.961781
0.33200  4.550600  2.930300
0.33400  4.560650  2.901400
0.33600  4.570300  2.875000
0.33800  4.576138  2.851906
0.34000  4.582500  2.829800
0.34200  4.594156  2.805675
0.34400  4.606400  2.782400
0.34600  4.614494  2.762694
0.34800  4.623300  2.744000
0.35000  4.637119  2.724206
0.35200  4.652900  2.704700
0.35400  4.669106  2.686081
0.35600  4.685500  2.668600
0.35800  4.700700  2.653112
0.36000  4.716600  2.638400
0.36200  4.734800  2.623694
0.36400  4.754800  2.608500
0.36600  4.776994  2.592212
0.36800  4.800300  2.574400
0.37000  4.823675  2.554250
0.37200  4.847400  2.532300
0.37400  4.871757  2.508087
0.37600  4.895700  2.483800
0.37800  4.917831  2.462706
0.38000  4.939500  2.441100
0.38200  4.962181  2.415412
0.38400  4.984100  2.388500
0.38600  5.003631  2.362287
0.38800  5.021800  2.336000
0.39000  5.039000  2.309144
0.39200  5.055500  2.282800
0.39400  5.071425  2.257762
0.39600  5.087600  2.234400
0.39800  5.105119  2.213631
0.40000  5.123300  2.194600
0.40200  5.141212  2.177113
0.40400  5.160700  2.160100
0.40600  5.183625  2.142413
0.40800  5.209000  2.124100
0.41000  5.236568  2.104925
0.41200  5.266000  2.084600
0.41400  5.296756  2.063138
0.41600  5.329200  2.039400
0.41800  5.363469  2.012537
0.42000  5.399700  1.981700
0.42200  5.435773  1.946391
0.42400  5.471272  1.907778
0.42600  5.505815  1.865998
0.42800  5.539018  1.821193
0.43000  5.570500  1.773500
0.43200  5.599878  1.723059
0.43400  5.626769  1.670010
0.43600  5.650791  1.614491
0.43800  5.671563  1.556641
0.44000  5.688700  1.496600
0.44200  5.700424  1.432456
0.44400  5.708098  1.366912
0.44600  5.711690  1.300619
0.44800  5.711169  1.234231
0.45000  5.706500  1.168400
0.45200  5.696160  1.104918
0.45400  5.681980  1.043011
0.45600  5.664300  0.983045
0.45800  5.643460  0.925386
0.46000  5.619800  0.870400
0.46200  5.593305  0.820074
0.46400  5.564759  0.772749
0.46600  5.534590  0.728388
0.46800  5.503227  0.686951
0.47000  5.471100  0.648400
0.47200  5.439626  0.613203
0.47400  5.407997  0.580689
0.47600  5.376395  0.550694
0.47800  5.345003  0.523053
0.48000  5.314000  0.497600
0.48200  5.284014  0.474328
0.48400  5.254672  0.452876
0.48600  5.226041  0.433040
0.48800  5.198193  0.414616
0.49000  5.171200  0.397400
0.49200  5.145549  0.380570
0.49400  5.120789  0.364695
0.49600  5.096883  0.349725
0.49800  5.073798  0.335610
0.50000  5.051500  0.322300
0.50200  5.030216  0.309609
0.50400  5.009584  0.297658
0.50600  4.989504  0.286434
0.50800  4.969876  0.275919
0.51000  4.950600  0.266100
0.51200  4.930891  0.257143
0.51400  4.911506  0.248806
0.51600  4.892515  0.241026
0.51800  4.873989  0.233745
0.52000  4.856000  0.226900
0.52200  4.839240  0.220306
0.52400  4.823004  0.214059
0.52600  4.807208  0.208129
0.52800  4.791768  0.202486
0.53000  4.776600  0.197100
0.53200  4.760938  0.191882
0.53400  4.745551  0.186877
0.53600  4.730525  0.182071
0.53800  4.715946  0.177450
0.54000  4.701900  0.173000
0.54200  4.689281  0.168648
0.54400  4.677166  0.164452
0.54600  4.665442  0.160412
0.54800  4.653992  0.156528
0.55000  4.642700  0.152800
0.55200  4.630711  0.149292
0.55400  4.618835  0.145924
0.55600  4.607145  0.142680
0.55800  4.595709  0.139544
0.56000  4.584600  0.136500
0.56200  4.574613  0.133599
0.56400  4.564910  0.130742
0.56600  4.555382  0.127894
0.56800  4.545915  0.125025
0.57000  4.536400  0.122100
0.57200  4.525864  0.118687
0.57400  4.515272  0.115254
0.57600  4.504728  0.111866
0.57800  4.494336  0.108593
0.58000  4.484200  0.105500
0.58200  4.475022  0.103142
0.58400  4.466159  0.100977
0.58600  4.457565  0.098951
0.58800  4.449193  0.097010
0.59000  4.441000  0.095100
0.59200  4.432855  0.092746
0.59400  4.424818  0.090419
0.59600  4.416862  0.088169
0.59800  4.408965  0.086046
0.60000  4.401100  0.084100
0.60200  4.392917  0.082802
0.60400  4.384799  0.081677
0.60600  4.376801  0.080671
0.60800  4.368983  0.079730
0.61000  4.361400  0.078800
0.61200  4.354803  0.077528
0.61400  4.348382  0.076232
0.61600  4.342019  0.074932
0.61800  4.335597  0.073648
0.62000  4.329000  0.072400
0.62200  4.320972  0.071237
0.62400  4.312820  0.070142
0.62600  4.304712  0.069130
0.62800  4.296816  0.068211
0.63000  4.289300  0.067400
0.63200  4.283263  0.066914
0.63400  4.277709  0.066509
0.63600  4.272574  0.066147
0.63800  4.267793  0.065790
0.64000  4.263300  0.065400
0.64200  4.259127  0.064790
0.64400  4.255089  0.064107
0.64600  4.251098  0.063349
0.64800  4.247065  0.062514
0.65000  4.242900  0.061600
0.65200  4.237789  0.060642
0.65400  4.232551  0.059593
0.65600  4.227278  0.058443
0.65800  4.222064  0.057182
0.66000  4.217000  0.055800
0.66200  4.212975  0.053873
0.66400  4.209087  0.051906
0.66600  4.205233  0.049994
0.66800  4.201305  0.048227
0.67000  4.197200  0.046700
0.67200  4.192145  0.046170
0.67400  4.186866  0.045899
0.67600  4.181426  0.045813
0.67800  4.175883  0.045838
0.68000  4.170300  0.045900
0.68200  4.164670  0.045558
0.68400  4.159137  0.045199
0.68600  4.153779  0.044841
0.68800  4.148674  0.044502
0.69000  4.143900  0.044200
0.69200  4.140110  0.044172
0.69400  4.136661  0.044164
0.69600  4.133487  0.044140
0.69800  4.130522  0.044064
0.70000  4.127700  0.043900
0.70200  4.124950  0.043282
0.70400  4.122211  0.042587
0.70600  4.119417  0.041861
0.70800  4.116501  0.041150
0.71000  4.113400  0.040500
0.71200  4.109313  0.040275
0.71400  4.105093  0.040126
0.71600  4.100855  0.040018
0.71800  4.096719  0.039921
0.72000  4.092800  0.039800
0.72200  4.090107  0.039495
0.72400  4.087646  0.039134
0.72600  4.085310  0.038714
0.72800  4.082997  0.038237
0.73000  4.080600  0.037700
0.73200  4.077330  0.037014
0.73400  4.073939  0.036289
0.73600  4.070493  0.035547
0.73800  4.067058  0.034810
0.74000  4.063700  0.034100
0.74200  4.060851  0.033578
0.74400  4.058122  0.033091
0.74600  4.055486  0.032625
0.74800  4.052920  0.032166
0.75000  4.050400  0.031700
0.75200  4.047688  0.031109
0.75400  4.045024  0.030510
0.75600  4.042436  0.029918
0.75800  4.039952  0.029343
0.76000  4.037600  0.028800
0.76200  4.035926  0.028378
0.76400  4.034311  0.027993
0.76600  4.032653  0.027639
0.76800  4.030849  0.027310
0.77000  4.028800  0.027000
0.77200  4.025458  0.026743
0.77400  4.021903  0.026482
0.77600  4.018269  0.026198
0.77800  4.014689  0.025877
0.78000  4.011300  0.025500
0.78200  4.009063  0.024914
0.78400  4.007078  0.024273
0.78600  4.005270  0.023595
0.78800  4.003569  0.022898
0.79000  4.001900  0.022200
0.79200  4.000099  0.021364
0.79400  3.998207  0.020600
0.79600  3.996177  0.019964
0.79800  3.993958  0.019512
0.80000  3.991500  0.019300
0.80200  3.987894  0.020021
0.80400  3.984165  0.020934
0.80600  3.980479  0.021938
0.80800  3.977002  0.022927
0.81000  3.973900  0.023800
0.81200  3.973091  0.024014
0.81400  3.972550  0.024015
0.81600  3.972003  0.023809
0.81800  3.971177  0.023402
0.82000  3.969800  0.022800
0.82200  3.965388  0.021306
0.82400  3.960432  0.019807
0.82600  3.955212  0.018485
0.82800  3.950008  0.017522
0.83000  3.945100  0.017100
0.83200  3.940768  0.017402
0.83400  3.937292  0.018611
0.83600  3.934952  0.020909
0.83800  3.934028  0.024478
0.84000  3.934800  0.029500
