; From SOPRA S.A. http://www.sopra-sa.com/indices.htm
; Filename    Symbol               Range (nm)     Description
; SIGE_GE     SiGe                240      840    Silicon Germanium alloy on Germanium
; lambda/um       n         k
0.24000  1.753800  3.265800
0.24200  1.723700  3.317900
0.24400  1.703500  3.343100
0.24600  1.711700  3.381600
0.24800  1.727800  3.447000
0.25000  1.752000  3.505300
0.25200  1.790000  3.564300
0.25400  1.827000  3.637000
0.25600  1.861100  3.710300
0.25800  1.910100  3.765700
0.26000  1.952800  3.849800
0.26200  2.007100  3.912400
0.26400  2.070300  3.988600
0.26600  2.132400  4.078200
0.26800  2.212300  4.168000
0.27000  2.297300  4.258300
0.27200  2.399500  4.342500
0.27400  2.509800  4.427300
0.27600  2.647000  4.521800
0.27800  2.805700  4.596000
0.28000  2.990300  4.675100
0.28200  3.205600  4.718800
0.28400  3.436300  4.721500
0.28600  3.679700  4.678800
0.28800  3.895900  4.584500
0.29000  4.097500  4.451800
0.29200  4.237400  4.304200
0.29400  4.357200  4.140400
0.29600  4.424900  3.989900
0.29800  4.483600  3.844800
0.30000  4.508200  3.720600
0.30200  4.527131  3.605338
0.30400  4.540400  3.501700
0.30600  4.548869  3.409087
0.30800  4.553400  3.326900
0.31000  4.554425  3.255213
0.31200  4.554100  3.191400
0.31400  4.554931  3.132950
0.31600  4.556300  3.079600
0.31800  4.558519  3.030126
0.32000  4.561300  2.984900
0.32200  4.564543  2.944725
0.32400  4.568000  2.907100
0.32600  4.571281  2.869212
0.32800  4.574700  2.832800
0.33000  4.578475  2.798587
0.33200  4.582500  2.766800
0.33400  4.586675  2.738431
0.33600  4.591200  2.711900
0.33800  4.595887  2.685806
0.34000  4.601800  2.660600
0.34200  4.610806  2.636100
0.34400  4.620300  2.612800
0.34600  4.627481  2.591413
0.34800  4.634800  2.571100
0.35000  4.643718  2.551281
0.35200  4.654400  2.531900
0.35400  4.668106  2.512669
0.35600  4.683000  2.493700
0.35800  4.697218  2.475269
0.36000  4.712100  2.456600
0.36200  4.728325  2.436800
0.36400  4.746000  2.416500
0.36600  4.766000  2.396331
0.36800  4.786700  2.375400
0.37000  4.806925  2.353287
0.37200  4.826200  2.329200
0.37400  4.843525  2.301787
0.37600  4.859300  2.272300
0.37800  4.873725  2.240744
0.38000  4.886400  2.209500
0.38200  4.896613  2.181725
0.38400  4.905500  2.155100
0.38600  4.913900  2.128375
0.38800  4.922000  2.101500
0.39000  4.930594  2.073394
0.39200  4.938700  2.045900
0.39400  4.945556  2.020344
0.39600  4.951300  1.997200
0.39800  4.955031  1.978094
0.40000  4.959100  1.960900
0.40200  4.965969  1.943625
0.40400  4.974400  1.927500
0.40600  4.983869  1.913444
0.40800  4.994700  1.900400
0.41000  5.006918  1.887712
0.41200  5.020900  1.875100
0.41400  5.037100  1.861969
0.41600  5.055300  1.848600
0.41800  5.075450  1.835056
0.42000  5.097500  1.821400
0.42200  5.121949  1.805117
0.42400  5.147116  1.786794
0.42600  5.172839  1.766394
0.42800  5.198954  1.743875
0.43000  5.225300  1.719200
0.43200  5.251714  1.692329
0.43400  5.278032  1.663223
0.43600  5.304095  1.631842
0.43800  5.329739  1.598147
0.44000  5.354800  1.562100
0.44200  5.379780  1.523664
0.44400  5.403688  1.482796
0.44600  5.426197  1.439456
0.44800  5.446977  1.393603
0.45000  5.465700  1.345200
0.45200  5.482687  1.292070
0.45400  5.496799  1.236841
0.45600  5.507549  1.180007
0.45800  5.514446  1.122062
0.46000  5.517000  1.063500
0.46200  5.511052  1.004106
0.46400  5.500700  0.945260
0.46600  5.486372  0.887629
0.46800  5.468496  0.831886
0.47000  5.447500  0.778700
0.47200  5.423742  0.731901
0.47400  5.397737  0.688210
0.47600  5.369931  0.647509
0.47800  5.340770  0.609679
0.48000  5.310700  0.574600
0.48200  5.280751  0.542281
0.48400  5.250638  0.512442
0.48600  5.220659  0.484934
0.48800  5.191113  0.459603
0.49000  5.162300  0.436300
0.49200  5.135940  0.414927
0.49400  5.110556  0.395266
0.49600  5.086092  0.377151
0.49800  5.062492  0.360417
0.50000  5.039700  0.344900
0.50200  5.017926  0.330269
0.50400  4.996781  0.316566
0.50600  4.976143  0.303670
0.50800  4.955890  0.291455
0.51000  4.935900  0.279800
0.51200  4.915272  0.267809
0.51400  4.894856  0.256325
0.51600  4.874724  0.245415
0.51800  4.854948  0.235150
0.52000  4.835600  0.225600
0.52200  4.817033  0.217266
0.52400  4.798968  0.209677
0.52600  4.781407  0.202795
0.52800  4.764350  0.196582
0.53000  4.747800  0.191000
0.53200  4.731729  0.186333
0.53400  4.716175  0.182138
0.53600  4.701146  0.178298
0.53800  4.686651  0.174691
0.54000  4.672700  0.171200
0.54200  4.659458  0.167401
0.54400  4.646737  0.163554
0.54600  4.634507  0.159618
0.54800  4.622739  0.155547
0.55000  4.611400  0.151300
0.55200  4.600865  0.146574
0.55400  4.590599  0.141649
0.55600  4.580470  0.136547
0.55800  4.570347  0.131290
0.56000  4.560100  0.125900
0.56200  4.548925  0.119819
0.56400  4.537530  0.113791
0.56600  4.525954  0.107985
0.56800  4.514231  0.102566
0.57000  4.502400  0.097700
0.57200  4.490298  0.094623
0.57400  4.478211  0.092166
0.57600  4.466225  0.090226
0.57800  4.454425  0.088705
0.58000  4.442900  0.087500
0.58200  4.432224  0.086226
0.58400  4.421872  0.085139
0.58600  4.411808  0.084209
0.58800  4.401996  0.083406
0.59000  4.392400  0.082700
0.59200  4.382603  0.081864
0.59400  4.373045  0.081116
0.59600  4.363786  0.080476
0.59800  4.354885  0.079964
0.60000  4.346400  0.079600
0.60200  4.338702  0.079753
0.60400  4.331461  0.080006
0.60600  4.324659  0.080294
0.60800  4.318279  0.080547
0.61000  4.312300  0.080700
0.61200  4.307234  0.080397
0.61400  4.302401  0.079930
0.61600  4.297651  0.079306
0.61800  4.292834  0.078527
0.62000  4.287800  0.077600
0.62200  4.281255  0.076538
0.62400  4.274477  0.075335
0.62600  4.267602  0.073993
0.62800  4.260765  0.072514
0.63000  4.254100  0.070900
0.63200  4.248421  0.068860
0.63400  4.243017  0.066764
0.63600  4.237851  0.064688
0.63800  4.232890  0.062708
0.64000  4.228100  0.060900
0.64200  4.223420  0.059839
0.64400  4.218848  0.058978
0.64600  4.214356  0.058266
0.64800  4.209916  0.057657
0.65000  4.205500  0.057100
0.65200  4.200923  0.056522
0.65400  4.196354  0.055905
0.65600  4.191803  0.055207
0.65800  4.187281  0.054386
0.66000  4.182800  0.053400
0.66200  4.178342  0.051956
0.66400  4.173955  0.050324
0.66600  4.169656  0.048524
0.66800  4.165465  0.046576
0.67000  4.161400  0.044500
0.67200  4.157984  0.042268
0.67400  4.154604  0.039960
0.67600  4.151152  0.037608
0.67800  4.147520  0.035244
0.68000  4.143600  0.032900
0.68200  4.138644  0.030403
0.68400  4.133344  0.028042
0.68600  4.127752  0.025898
0.68800  4.121920  0.024057
0.69000  4.115900  0.022600
0.69200  4.109373  0.022238
0.69400  4.102854  0.022271
0.69600  4.096489  0.022625
0.69800  4.090423  0.023226
0.70000  4.084800  0.024000
0.70200  4.080881  0.024788
0.70400  4.077416  0.025624
0.70600  4.074271  0.026456
0.70800  4.071310  0.027232
0.71000  4.068400  0.027900
0.71200  4.064641  0.028053
0.71400  4.060854  0.028082
0.71600  4.057097  0.028026
0.71800  4.053427  0.027919
0.72000  4.049900  0.027800
0.72200  4.047037  0.028066
0.72400  4.044314  0.028303
0.72600  4.041673  0.028457
0.72800  4.039055  0.028474
0.73000  4.036400  0.028300
0.73200  4.033360  0.027374
0.73400  4.030238  0.026277
0.73600  4.027046  0.025083
0.73800  4.023795  0.023866
0.74000  4.020500  0.022700
0.74200  4.017266  0.022013
0.74400  4.013989  0.021434
0.74600  4.010659  0.020950
0.74800  4.007266  0.020543
0.75000  4.003800  0.020200
0.75200  3.999981  0.019818
0.75400  3.996134  0.019491
0.75600  3.992317  0.019225
0.75800  3.988587  0.019026
0.76000  3.985000  0.018900
0.76200  3.982009  0.018717
0.76400  3.979177  0.018654
0.76600  3.976459  0.018754
0.76800  3.973814  0.019055
0.77000  3.971200  0.019600
0.77200  3.968103  0.020931
0.77400  3.965069  0.022462
0.77600  3.962174  0.024106
0.77800  3.959493  0.025781
0.78000  3.957100  0.027400
0.78200  3.955423  0.028726
0.78400  3.954098  0.029865
0.78600  3.953110  0.030771
0.78800  3.952449  0.031398
0.79000  3.952100  0.031700
0.79200  3.952467  0.031166
0.79400  3.953018  0.030329
0.79600  3.953634  0.029259
0.79800  3.954201  0.028026
0.80000  3.954600  0.026700
0.80200  3.953890  0.025586
0.80400  3.952985  0.024459
0.80600  3.951975  0.023329
0.80800  3.950950  0.022206
0.81000  3.950000  0.021100
0.81200  3.950522  0.019936
0.81400  3.950971  0.018832
0.81600  3.951109  0.017820
0.81800  3.950698  0.016932
0.82000  3.949500  0.016200
0.82200  3.945973  0.015643
0.82400  3.941510  0.015310
0.82600  3.936202  0.015234
0.82800  3.930135  0.015453
0.83000  3.923400  0.016000
0.83200  3.916085  0.016911
0.83400  3.908278  0.018222
0.83600  3.900069  0.019966
0.83800  3.891547  0.022181
0.84000  3.882800  0.024900
