; From SOPRA S.A. http://www.sopra-sa.com/indices.htm
; Filename    Symbol               Range (nm)     Description
; SINGAS0     GaAs                240      840    Indium Gallium Arsenide (strained, 0% In)
; lambda/um       n         k
0.24000  1.643453  3.580394
0.24500  1.926558  3.908621
0.25000  2.582689  4.100875
0.25500  3.053440  3.978600
0.26000  3.451633  3.659261
0.26500  3.630632  3.402157
0.27000  3.769000  3.169000
0.27500  3.899687  2.951358
0.28000  3.994867  2.683321
0.28500  3.991437  2.401187
0.29000  3.909461  2.200347
0.29500  3.810000  2.069000
0.30000  3.729438  1.995444
0.30500  3.653652  1.944929
0.31000  3.601000  1.920000
0.31500  3.558463  1.906914
0.32000  3.526496  1.903469
0.32500  3.504331  1.907465
0.33000  3.491706  1.915870
0.33500  3.485000  1.931000
0.34000  3.486750  1.946375
0.34500  3.497473  1.969396
0.35000  3.513319  1.992070
0.35500  3.536132  2.018684
0.36000  3.564197  2.047452
0.36500  3.596000  2.076000
0.37000  3.642250  2.115062
0.37500  3.695354  2.152009
0.38000  3.782577  2.224225
0.38500  3.888917  2.279144
0.39000  4.027629  2.277200
0.39500  4.199896  2.223598
0.40000  4.373000  2.146000
0.40500  4.423691  2.080272
0.41000  4.460520  1.999492
0.41500  4.579355  1.923999
0.42000  4.794813  1.867750
0.42500  4.976726  1.797263
0.43000  5.068722  1.628876
0.43500  5.056000  1.360249
0.44000  5.003201  1.115527
0.44500  4.929679  0.932206
0.45000  4.850077  0.824341
0.45500  4.762076  0.745440
0.46000  4.680136  0.684298
0.46500  4.618791  0.632094
0.47000  4.564363  0.588805
0.47500  4.511981  0.552240
0.48000  4.462553  0.519421
0.48500  4.416549  0.489951
0.49000  4.376226  0.465656
0.49500  4.339944  0.444895
0.50000  4.304924  0.425001
0.50500  4.271910  0.406528
0.51000  4.242378  0.390495
0.51500  4.215350  0.376306
0.52000  4.189450  0.363184
0.52500  4.164428  0.350880
0.53000  4.140399  0.339307
0.53500  4.117398  0.328338
0.54000  4.095881  0.317963
0.54500  4.076224  0.308119
0.55000  4.057992  0.298848
0.55500  4.041077  0.290244
0.56000  4.025181  0.282168
0.56500  4.009954  0.274471
0.57000  3.995024  0.267011
0.57500  3.980582  0.259848
0.58000  3.966482  0.252886
0.58500  3.952867  0.246214
0.59000  3.940000  0.240000
0.59500  3.928553  0.234718
0.60000  3.917859  0.229864
0.60500  3.907687  0.225250
0.61000  3.897436  0.220506
0.61500  3.887524  0.215772
0.62000  3.878000  0.211000
0.62500  3.869006  0.205990
0.63000  3.860436  0.200948
0.63500  3.852273  0.195933
0.64000  3.844508  0.191040
0.64500  3.837114  0.186280
0.65000  3.830069  0.181675
0.65500  3.823345  0.177314
0.66000  3.816920  0.173225
0.66500  3.810790  0.169281
0.67000  3.804938  0.165438
0.67500  3.799528  0.161808
0.68000  3.794295  0.158127
0.68500  3.789138  0.154279
0.69000  3.783881  0.150020
0.69500  3.778239  0.144930
0.70000  3.772565  0.139629
0.70500  3.766915  0.134259
0.71000  3.761431  0.129054
0.71500  3.756186  0.124172
0.72000  3.751045  0.119538
0.72500  3.745992  0.115208
0.73000  3.740985  0.111299
0.73500  3.735949  0.108030
0.74000  3.730989  0.105118
0.74500  3.726124  0.102519
0.75000  3.721373  0.100188
0.75500  3.716773  0.097908
0.76000  3.712325  0.095805
0.76500  3.708038  0.093940
0.77000  3.703926  0.092333
0.77500  3.700000  0.091000
0.78000  3.696475  0.090444
0.78500  3.693115  0.090081
0.79000  3.689879  0.089805
0.79500  3.686729  0.089507
0.80000  3.683625  0.089082
0.80500  3.680496  0.088556
0.81000  3.677342  0.087660
0.81500  3.674130  0.086258
0.82000  3.670830  0.084211
0.82500  3.667409  0.081382
0.83000  3.663691  0.076626
0.83500  3.659718  0.070322
0.84000  3.655604  0.063335
