; From SOPRA S.A. http://www.sopra-sa.com/indices.htm
; Filename    Symbol               Range (nm)     Description
; SINGAS20    In0.2Ga0.8As        240      840    Indium Gallium Arsenide (strained, 20% In)
; lambda/um       n         k
0.24000  2.355464  4.116045
0.24500  1.993885  3.644457
0.25000  2.347438  3.841478
0.25500  2.821813  3.846941
0.26000  3.279999  3.682007
0.26500  3.556802  3.433547
0.27000  3.737091  3.171045
0.27500  3.864687  2.862803
0.28000  3.907057  2.637978
0.28500  3.894472  2.380515
0.29000  3.823867  2.213707
0.29500  3.753075  2.073482
0.30000  3.689079  1.996676
0.30500  3.627213  1.928668
0.31000  3.577075  1.889751
0.31500  3.528846  1.867106
0.32000  3.501791  1.846764
0.32500  3.472210  1.833333
0.33000  3.457140  1.832421
0.33500  3.443756  1.833142
0.34000  3.437894  1.839659
0.34500  3.433575  1.851868
0.35000  3.440102  1.864007
0.35500  3.453672  1.882517
0.36000  3.460988  1.898672
0.36500  3.484380  1.916896
0.37000  3.514874  1.937205
0.37500  3.549492  1.953058
0.38000  3.588192  1.978304
0.38500  3.648801  2.014674
0.39000  3.695730  2.032350
0.39500  3.772843  2.049595
0.40000  3.882267  2.047222
0.40500  3.983560  2.009721
0.41000  4.038820  1.959230
0.41500  4.085921  1.916577
0.42000  4.105343  1.904120
0.42500  4.141673  1.935128
0.43000  4.248631  1.985592
0.43500  4.413103  1.969735
0.44000  4.586983  1.882126
0.44500  4.751053  1.725719
0.45000  4.845526  1.527856
0.45500  4.864520  1.342556
0.46000  4.835858  1.161003
0.46500  4.783136  1.037152
0.47000  4.722685  0.930072
0.47500  4.660565  0.842255
0.48000  4.597694  0.769753
0.48500  4.535756  0.708502
0.49000  4.480611  0.657806
0.49500  4.438468  0.619343
0.50000  4.396670  0.586177
0.50500  4.356994  0.557303
0.51000  4.320467  0.531855
0.51500  4.282672  0.507308
0.52000  4.246293  0.485249
0.52500  4.210820  0.464986
0.53000  4.175545  0.445444
0.53500  4.150379  0.431423
0.54000  4.128962  0.419141
0.54500  4.103730  0.404375
0.55000  4.079936  0.391961
0.55500  4.057981  0.381852
0.56000  4.037117  0.371890
0.56500  4.015360  0.361575
0.57000  3.991536  0.350408
0.57500  3.971551  0.339975
0.58000  3.955250  0.331068
0.58500  3.938650  0.325219
0.59000  3.922358  0.320317
0.59500  3.907678  0.312472
0.60000  3.893541  0.304483
0.60500  3.878423  0.298829
0.61000  3.864409  0.293777
0.61500  3.854406  0.288349
0.62000  3.844427  0.282754
0.62500  3.830364  0.276635
0.63000  3.815482  0.270717
0.63500  3.801502  0.265649
0.64000  3.789076  0.261389
0.64500  3.780596  0.258634
0.65000  3.774227  0.256452
0.65500  3.767621  0.253490
0.66000  3.759915  0.249383
0.66500  3.752432  0.245496
0.67000  3.745709  0.242621
0.67500  3.738979  0.240032
0.68000  3.731605  0.237383
0.68500  3.723713  0.234598
0.69000  3.715179  0.231539
0.69500  3.705645  0.227998
0.70000  3.696869  0.224298
0.70500  3.691278  0.220637
0.71000  3.688034  0.217051
0.71500  3.684848  0.213503
0.72000  3.678113  0.210252
0.72500  3.670851  0.206851
0.73000  3.664270  0.202924
0.73500  3.659985  0.197908
0.74000  3.656282  0.192756
0.74500  3.652599  0.187923
0.75000  3.648226  0.183962
0.75500  3.643725  0.180596
0.76000  3.639039  0.178074
0.76500  3.633989  0.176881
0.77000  3.629284  0.175804
0.77500  3.625274  0.174320
0.78000  3.623549  0.170104
0.78500  3.622412  0.165601
0.79000  3.621407  0.161455
0.79500  3.618747  0.160081
0.80000  3.615561  0.160013
0.80500  3.612619  0.160256
0.81000  3.610910  0.159762
0.81500  3.612167  0.156797
0.82000  3.613423  0.153929
0.82500  3.613824  0.151793
0.83000  3.612442  0.151902
0.83500  3.608480  0.154188
0.84000  3.601192  0.157994
