; From SOPRA S.A. http://www.sopra-sa.com/indices.htm
; Filename    Symbol               Range (nm)     Description
; SIO         SiO                 210     2066    Silicon Monoxide
; lambda/um       n         k
0.21014  1.693300  1.057400
0.21377  1.611200  1.059100
0.21752  1.633300  1.068100
0.22140  1.657300  1.080200
0.22543  1.681700  1.090200
0.22960  1.706900  1.100000
0.23393  1.734700  1.109200
0.23843  1.763900  1.118200
0.24311  1.794900  1.126500
0.24797  1.827000  1.133300
0.25303  1.862200  1.140300
0.25830  1.898800  1.145700
0.26380  1.938300  1.149700
0.26953  1.979800  1.152000
0.27552  2.024100  1.152400
0.28178  2.070500  1.150000
0.28834  2.120100  1.144500
0.29520  2.172100  1.135100
0.30240  2.225900  1.120900
0.30996  2.281200  1.100700
0.31791  2.348400  1.078100
0.32628  2.393300  1.041500
0.33510  2.446800  1.000200
0.34440  2.496700  0.953000
0.35424  2.542000  0.898700
0.36466  2.580100  0.839600
0.37571  2.611700  0.776000
0.38745  2.635300  0.710700
0.39995  2.650600  0.644600
0.41328  2.659000  0.578800
0.42754  2.659900  0.515600
0.44280  2.655300  0.454900
0.45920  2.645600  0.397100
0.47687  2.631500  0.343600
0.49594  2.614300  0.293400
0.51660  2.594200  0.246800
0.53907  2.571100  0.204200
0.56357  2.546800  0.164400
0.59041  2.521600  0.125400
0.61993  2.496300  0.086300
0.65255  2.470200  0.048000
0.68881  2.448000  0.013100
0.72932  2.428800  0.001800
0.77491  2.410800  0.000000
0.82657  2.394400  0.000000
0.88561  2.381400  0.000000
0.95373  2.374300  0.000000
1.03321  2.356600  0.000000
1.12714  2.350900  0.000000
1.23985  2.337600  0.000000
1.37761  2.325400  0.000000
1.54981  2.313200  0.000000
1.77122  2.301000  0.000000
2.06642  2.288800  0.000000
