; From SOPRA S.A. http://www.sopra-sa.com/indices.htm
; Filename    Symbol               Range (nm)     Description
; SION20      SiO0.8N0.2          250      800    Silicon Oxynitride (20% N)
; lambda/um       n         k
0.25000  1.634473  0.002364
0.25500  1.630298  0.001562
0.26000  1.625956  0.000878
0.26500  1.621787  0.000346
0.27000  1.618130  0.000000
0.27500  1.615985  0.000055
0.28000  1.613708  0.000000
0.28500  1.609308  0.000000
0.29000  1.604822  0.000000
0.29500  1.602003  0.000000
0.30000  1.599711  0.000000
0.30500  1.597255  0.000000
0.31000  1.595047  0.000000
0.31500  1.593462  0.000000
0.32000  1.591920  0.000000
0.32500  1.589743  0.000000
0.33000  1.587608  0.000000
0.33500  1.586105  0.000000
0.34000  1.584810  0.000000
0.34500  1.583464  0.000000
0.35000  1.582166  0.000000
0.35500  1.580939  0.000000
0.36000  1.579757  0.000000
0.36500  1.578597  0.000000
0.37000  1.577468  0.000000
0.37500  1.576356  0.000000
0.38000  1.575315  0.000000
0.38500  1.574424  0.000000
0.39000  1.573597  0.000000
0.39500  1.572778  0.000000
0.40000  1.571950  0.000000
0.40500  1.571024  0.000000
0.41000  1.570153  0.000000
0.41500  1.569538  0.000000
0.42000  1.568940  0.000000
0.42500  1.568121  0.000000
0.43000  1.567275  0.000000
0.43500  1.566483  0.000000
0.44000  1.565853  0.000000
0.44500  1.565646  0.000000
0.45000  1.565487  0.000000
0.45500  1.565040  0.000000
0.46000  1.564445  0.000000
0.46500  1.563668  0.000000
0.47000  1.562897  0.000000
0.47500  1.562358  0.000000
0.48000  1.561904  0.000000
0.48500  1.561477  0.000000
0.49000  1.561035  0.000000
0.49500  1.560493  0.000000
0.50000  1.559929  0.000000
0.50500  1.559384  0.000000
0.51000  1.558878  0.000000
0.51500  1.558456  0.000000
0.52000  1.558076  0.000000
0.52500  1.557720  0.000000
0.53000  1.557368  0.000000
0.53500  1.556989  0.000000
0.54000  1.556591  0.000000
0.54500  1.556143  0.000000
0.55000  1.555729  0.000000
0.55500  1.555426  0.000000
0.56000  1.555224  0.000000
0.56500  1.555184  0.000000
0.57000  1.555171  0.000000
0.57500  1.555063  0.000000
0.58000  1.554886  0.000000
0.58500  1.554625  0.000000
0.59000  1.554274  0.000000
0.59500  1.553783  0.000000
0.60000  1.553271  0.000000
0.60500  1.552854  0.000000
0.61000  1.552488  0.000000
0.61500  1.552172  0.000000
0.62000  1.551889  0.000000
0.62500  1.551613  0.000000
0.63000  1.551369  0.000000
0.63500  1.551180  0.000000
0.64000  1.551027  0.000000
0.64500  1.550887  0.000000
0.65000  1.550794  0.000000
0.65500  1.550802  0.000000
0.66000  1.550823  0.000000
0.66500  1.550782  0.000000
0.67000  1.550698  0.000000
0.67500  1.550560  0.000000
0.68000  1.550377  0.000000
0.68500  1.550156  0.000000
0.69000  1.549892  0.000000
0.69500  1.549562  0.000000
0.70000  1.549220  0.000000
0.70500  1.548917  0.000000
0.71000  1.548633  0.000000
0.71500  1.548367  0.000000
0.72000  1.548119  0.000000
0.72500  1.547886  0.000000
0.73000  1.547669  0.000000
0.73500  1.547473  0.000000
0.74000  1.547290  0.000000
0.74500  1.547111  0.000000
0.75000  1.546939  0.000000
0.75500  1.546774  0.000000
0.76000  1.546615  0.000000
0.76500  1.546463  0.000000
0.77000  1.546316  0.000000
0.77500  1.546169  0.000000
0.78000  1.546026  0.000000
0.78500  1.545888  0.000000
0.79000  1.545757  0.000000
0.79500  1.545635  0.000000
0.80000  1.545523  0.000000
