; From SOPRA S.A. http://www.sopra-sa.com/indices.htm
; Filename    Symbol               Range (nm)     Description
; SION60      SiO0.4N0.6          250      800    Silicon Oxynitride (60% N)
; lambda/um       n         k
0.25000  1.860302  0.007077
0.25500  1.853134  0.004720
0.26000  1.845059  0.002676
0.26500  1.837144  0.001063
0.27000  1.830453  0.000000
0.27500  1.828047  0.000167
0.28000  1.825012  0.000000
0.28500  1.815425  0.000000
0.29000  1.805376  0.000000
0.29500  1.800109  0.000000
0.30000  1.796241  0.000000
0.30500  1.791740  0.000000
0.31000  1.787805  0.000000
0.31500  1.785505  0.000000
0.32000  1.783202  0.000000
0.32500  1.778967  0.000000
0.33000  1.774748  0.000000
0.33500  1.772249  0.000000
0.34000  1.770277  0.000000
0.34500  1.768125  0.000000
0.35000  1.766036  0.000000
0.35500  1.764023  0.000000
0.36000  1.762078  0.000000
0.36500  1.760225  0.000000
0.37000  1.758390  0.000000
0.37500  1.756415  0.000000
0.38000  1.754571  0.000000
0.38500  1.753170  0.000000
0.39000  1.751932  0.000000
0.39500  1.750709  0.000000
0.40000  1.749420  0.000000
0.40500  1.747789  0.000000
0.41000  1.746257  0.000000
0.41500  1.745395  0.000000
0.42000  1.744543  0.000000
0.42500  1.743049  0.000000
0.43000  1.741458  0.000000
0.43500  1.739997  0.000000
0.44000  1.738968  0.000000
0.44500  1.739099  0.000000
0.45000  1.739338  0.000000
0.45500  1.738747  0.000000
0.46000  1.737717  0.000000
0.46500  1.736158  0.000000
0.47000  1.734585  0.000000
0.47500  1.733614  0.000000
0.48000  1.732858  0.000000
0.48500  1.732167  0.000000
0.49000  1.731442  0.000000
0.49500  1.730473  0.000000
0.50000  1.729442  0.000000
0.50500  1.728445  0.000000
0.51000  1.727527  0.000000
0.51500  1.726799  0.000000
0.52000  1.726161  0.000000
0.52500  1.725570  0.000000
0.53000  1.724972  0.000000
0.53500  1.724294  0.000000
0.54000  1.723554  0.000000
0.54500  1.722663  0.000000
0.55000  1.721863  0.000000
0.55500  1.721376  0.000000
0.56000  1.721171  0.000000
0.56500  1.721419  0.000000
0.57000  1.721740  0.000000
0.57500  1.721786  0.000000
0.58000  1.721627  0.000000
0.58500  1.721222  0.000000
0.59000  1.720558  0.000000
0.59500  1.719498  0.000000
0.60000  1.718369  0.000000
0.60500  1.717496  0.000000
0.61000  1.716755  0.000000
0.61500  1.716148  0.000000
0.62000  1.715624  0.000000
0.62500  1.715105  0.000000
0.63000  1.714669  0.000000
0.63500  1.714388  0.000000
0.64000  1.714206  0.000000
0.64500  1.714059  0.000000
0.65000  1.714041  0.000000
0.65500  1.714309  0.000000
0.66000  1.714612  0.000000
0.66500  1.714735  0.000000
0.67000  1.714729  0.000000
0.67500  1.714564  0.000000
0.68000  1.714266  0.000000
0.68500  1.713858  0.000000
0.69000  1.713322  0.000000
0.69500  1.712595  0.000000
0.70000  1.711828  0.000000
0.70500  1.711170  0.000000
0.71000  1.710566  0.000000
0.71500  1.710011  0.000000
0.72000  1.709502  0.000000
0.72500  1.709033  0.000000
0.73000  1.708610  0.000000
0.73500  1.708245  0.000000
0.74000  1.707912  0.000000
0.74500  1.707590  0.000000
0.75000  1.707284  0.000000
0.75500  1.706995  0.000000
0.76000  1.706722  0.000000
0.76500  1.706467  0.000000
0.77000  1.706222  0.000000
0.77500  1.705979  0.000000
0.78000  1.705745  0.000000
0.78500  1.705524  0.000000
0.79000  1.705321  0.000000
0.79500  1.705139  0.000000
0.80000  1.704982  0.000000
