; From SOPRA S.A. http://www.sopra-sa.com/indices.htm
; Filename    Symbol               Range (nm)     Description
; SION80      SiO0.2N0.8          250      800    Silicon Oxynitride (80% N)
; lambda/um       n         k
0.25000  2.092936  0.012111
0.25500  2.082595  0.008032
0.26000  2.070561  0.004530
0.26500  2.058673  0.001791
0.27000  2.048768  0.000000
0.27500  2.046092  0.000283
0.28000  2.042261  0.000000
0.28500  2.027178  0.000000
0.29000  2.011234  0.000000
0.29500  2.003378  0.000000
0.30000  1.997848  0.000000
0.30500  1.991188  0.000000
0.31000  1.985431  0.000000
0.31500  1.982379  0.000000
0.32000  1.979276  0.000000
0.32500  1.972869  0.000000
0.33000  1.966453  0.000000
0.33500  1.962906  0.000000
0.34000  1.960221  0.000000
0.34500  1.957221  0.000000
0.35000  1.954301  0.000000
0.35500  1.951460  0.000000
0.36000  1.948714  0.000000
0.36500  1.946134  0.000000
0.37000  1.943556  0.000000
0.37500  1.940673  0.000000
0.38000  1.937985  0.000000
0.38500  1.936047  0.000000
0.39000  1.934378  0.000000
0.39500  1.932731  0.000000
0.40000  1.930959  0.000000
0.40500  1.928586  0.000000
0.41000  1.926361  0.000000
0.41500  1.925239  0.000000
0.42000  1.924120  0.000000
0.42500  1.921918  0.000000
0.43000  1.919545  0.000000
0.43500  1.917380  0.000000
0.44000  1.915931  0.000000
0.44500  1.916420  0.000000
0.45000  1.917081  0.000000
0.45500  1.916337  0.000000
0.46000  1.914850  0.000000
0.46500  1.912468  0.000000
0.47000  1.910053  0.000000
0.47500  1.908629  0.000000
0.48000  1.907556  0.000000
0.48500  1.906589  0.000000
0.49000  1.905567  0.000000
0.49500  1.904150  0.000000
0.50000  1.902629  0.000000
0.50500  1.901156  0.000000
0.51000  1.899806  0.000000
0.51500  1.898757  0.000000
0.52000  1.897849  0.000000
0.52500  1.897010  0.000000
0.53000  1.896155  0.000000
0.53500  1.895164  0.000000
0.54000  1.894065  0.000000
0.54500  1.892709  0.000000
0.55000  1.891504  0.000000
0.55500  1.890823  0.000000
0.56000  1.890616  0.000000
0.56500  1.891168  0.000000
0.57000  1.891840  0.000000
0.57500  1.892048  0.000000
0.58000  1.891910  0.000000
0.58500  1.891355  0.000000
0.59000  1.890363  0.000000
0.59500  1.888705  0.000000
0.60000  1.886929  0.000000
0.60500  1.885576  0.000000
0.61000  1.884441  0.000000
0.61500  1.883529  0.000000
0.62000  1.882752  0.000000
0.62500  1.881977  0.000000
0.63000  1.881340  0.000000
0.63500  1.880963  0.000000
0.64000  1.880752  0.000000
0.64500  1.880598  0.000000
0.65000  1.880660  0.000000
0.65500  1.881201  0.000000
0.66000  1.881800  0.000000
0.66500  1.882095  0.000000
0.67000  1.882172  0.000000
0.67500  1.881978  0.000000
0.68000  1.881560  0.000000
0.68500  1.880957  0.000000
0.69000  1.880136  0.000000
0.69500  1.878992  0.000000
0.70000  1.877779  0.000000
0.70500  1.876749  0.000000
0.71000  1.875809  0.000000
0.71500  1.874949  0.000000
0.72000  1.874167  0.000000
0.72500  1.873452  0.000000
0.73000  1.872813  0.000000
0.73500  1.872270  0.000000
0.74000  1.871781  0.000000
0.74500  1.871308  0.000000
0.75000  1.870862  0.000000
0.75500  1.870443  0.000000
0.76000  1.870051  0.000000
0.76500  1.869687  0.000000
0.77000  1.869341  0.000000
0.77500  1.868996  0.000000
0.78000  1.868667  0.000000
0.78500  1.868360  0.000000
0.79000  1.868081  0.000000
0.79500  1.867837  0.000000
0.80000  1.867633  0.000000
