; From SOPRA S.A. http://www.sopra-sa.com/indices.htm
; Filename    Symbol               Range (nm)     Description
; SIPOLY      Si                  210     1239    Polysilicon
; lambda/um       n         k
0.21014  1.092200  2.883100
0.21194  1.100900  2.903606
0.21377  1.118400  2.931500
0.21563  1.142375  2.965294
0.21752  1.170500  3.003500
0.21944  1.197969  3.044187
0.22140  1.229900  3.087200
0.22340  1.269800  3.133762
0.22543  1.317700  3.177800
0.22750  1.378500  3.215638
0.22960  1.441100  3.241300
0.23175  1.498944  3.241500
0.23393  1.543300  3.234500
0.23616  1.557963  3.232469
0.23843  1.558800  3.240400
0.24075  1.555144  3.269319
0.24311  1.550400  3.313300
0.24552  1.551262  3.370399
0.24797  1.557200  3.439700
0.25048  1.569763  3.519669
0.25303  1.589400  3.610200
0.25564  1.616550  3.709288
0.25830  1.652800  3.821100
0.26102  1.696100  3.947731
0.26380  1.757800  4.093400
0.26663  1.842987  4.269037
0.26953  1.968400  4.456600
0.27249  2.156624  4.648149
0.27552  2.395200  4.824300
0.27862  2.673333  4.964182
0.28178  3.008600  5.064300
0.28502  3.442902  5.146675
0.28834  3.892500  5.113900
0.29173  4.307407  4.813545
0.29520  4.628300  4.432700
0.29876  4.739799  4.115120
0.30240  4.760100  3.838400
0.30614  4.770644  3.637695
0.30996  4.766300  3.484100
0.31389  4.768732  3.362931
0.31791  4.779000  3.266700
0.32204  4.808137  3.183175
0.32628  4.847900  3.111900
0.33063  4.892231  3.047144
0.33510  4.945600  2.992500
0.33969  5.003737  2.947350
0.34440  5.086800  2.918600
0.34925  5.192213  2.938194
0.35424  5.383900  2.930400
0.35938  5.807332  2.863350
0.36466  6.215300  2.637400
0.37011  6.389788  2.028855
0.37571  6.388700  1.378000
0.38149  6.140043  0.998007
0.38745  5.815500  0.746500
0.39360  5.581969  0.598994
0.39995  5.381800  0.515000
0.40651  5.215969  0.443550
0.41328  5.075500  0.391600
0.42029  4.952588  0.349431
0.42754  4.844700  0.316100
0.43504  4.746824  0.287837
0.44280  4.658600  0.263400
0.45086  4.578231  0.240775
0.45920  4.505000  0.218500
0.46787  4.437950  0.192556
0.47687  4.376000  0.168600
0.48622  4.317744  0.152450
0.49594  4.263200  0.139600
0.50606  4.212000  0.127413
0.51660  4.163900  0.116100
0.52760  4.118594  0.105156
0.53907  4.075900  0.094100
0.55105  4.035631  0.081281
0.56357  3.997500  0.069700
0.57668  3.961087  0.063163
0.59041  3.926600  0.057600
0.60481  3.894362  0.049456
0.61993  3.863600  0.041000
0.63582  3.833256  0.033381
0.65255  3.804500  0.026400
0.67019  3.778419  0.020056
0.68881  3.754200  0.014900
0.70849  3.731369  0.011813
0.72932  3.710000  0.009800
0.75143  3.690494  0.008175
0.77491  3.671400  0.006900
0.79990  3.651106  0.005631
0.82657  3.630500  0.004600
0.85507  3.609006  0.004013
0.88561  3.589400  0.003600
0.91841  3.575756  0.003144
0.95373  3.563600  0.002700
0.99188  3.548981  0.002194
1.03321  3.534400  0.001800
1.07813  3.521525  0.001800
1.12714  3.508900  0.001800
1.18081  3.495850  0.001575
1.23985  3.481700  0.000900
