; From SOPRA S.A. http://www.sopra-sa.com/indices.htm
; Filename    Symbol               Range (nm)     Description
; SIPORE      Si                  210     1239    Porous Silicon
; lambda/um       n         k
0.21014  1.234500  0.987200
0.21194  1.243138  0.993131
0.21377  1.252000  0.999900
0.21563  1.261238  1.007444
0.21752  1.271000  1.015700
0.21944  1.281175  1.024719
0.22140  1.292700  1.034100
0.22340  1.306600  1.044044
0.22543  1.322500  1.052800
0.22750  1.341525  1.059013
0.22960  1.360200  1.061700
0.23175  1.375894  1.057531
0.23393  1.387200  1.052200
0.23616  1.390213  1.050125
0.23843  1.389800  1.051800
0.24075  1.389325  1.059850
0.24311  1.389400  1.072300
0.24552  1.391875  1.088150
0.24797  1.396400  1.107100
0.25048  1.403219  1.128513
0.25303  1.412400  1.152400
0.25564  1.423944  1.178206
0.25830  1.438300  1.207000
0.26102  1.454925  1.239400
0.26380  1.476800  1.276200
0.26663  1.505519  1.319962
0.26953  1.544700  1.366000
0.27249  1.599487  1.411831
0.27552  1.666900  1.453400
0.27862  1.743582  1.486225
0.28178  1.835800  1.509100
0.28502  1.956488  1.529112
0.28834  2.082300  1.516900
0.29173  2.200588  1.427575
0.29520  2.292200  1.314800
0.29876  2.322181  1.219013
0.30240  2.325300  1.135000
0.30614  2.324875  1.073975
0.30996  2.320300  1.027100
0.31389  2.319163  0.989944
0.31791  2.320200  0.960500
0.32204  2.324862  0.935444
0.32628  2.332600  0.914300
0.33063  2.343206  0.895063
0.33510  2.357100  0.879000
0.33969  2.372450  0.866019
0.34440  2.395800  0.858200
0.34925  2.426450  0.865506
0.35424  2.484300  0.864200
0.35938  2.614775  0.844406
0.36466  2.740600  0.774500
0.37011  2.793950  0.583800
0.37571  2.791900  0.379600
0.38149  2.710575  0.260400
0.38745  2.605000  0.181900
0.39360  2.528306  0.137031
0.39995  2.462300  0.112600
0.40651  2.407444  0.092350
0.41328  2.360900  0.078400
0.42029  2.320281  0.067538
0.42754  2.284700  0.059500
0.43504  2.252518  0.053112
0.44280  2.223600  0.047900
0.45086  2.197337  0.043150
0.45920  2.173500  0.038400
0.46787  2.151775  0.032325
0.47687  2.131800  0.026800
0.48622  2.113113  0.023756
0.49594  2.095700  0.021700
0.50606  2.079412  0.019756
0.51660  2.064200  0.018000
0.52760  2.049994  0.016269
0.53907  2.036700  0.014400
0.55105  2.024237  0.011819
0.56357  2.012500  0.009600
0.57668  2.001331  0.009094
0.59041  1.990800  0.008900
0.60481  1.981006  0.007813
0.61993  1.971700  0.006600
0.63582  1.962556  0.005669
0.65255  1.953900  0.004900
0.67019  1.946025  0.004344
0.68881  1.938700  0.003900
0.70849  1.931775  0.003488
0.72932  1.925300  0.003100
0.75143  1.919444  0.002694
0.77491  1.913700  0.002300
0.79990  1.907531  0.001925
0.82657  1.901200  0.001600
0.85507  1.894481  0.001375
0.88561  1.888300  0.001200
0.91841  1.883931  0.001044
0.95373  1.880100  0.000900
0.99188  1.875800  0.000731
1.03321  1.871500  0.000600
1.07813  1.867381  0.000600
1.12714  1.863300  0.000600
1.18081  1.859194  0.000525
1.23985  1.855000  0.000300
