; From SOPRA S.A. http://www.sopra-sa.com/indices.htm
; Filename    Symbol               Range (nm)     Description
; TA          Ta                  180     2480    Tantalum
; lambda/um       n         k
0.18000  1.207740  2.065205
0.19000  1.316755  2.260065
0.20000  1.480000  2.450000
0.21000  1.720912  2.598338
0.22000  2.016951  2.667750
0.23000  2.321471  2.604213
0.24000  2.541610  2.400758
0.25000  2.572579  2.154195
0.26000  2.480464  2.088274
0.27000  2.414541  2.052975
0.28000  2.372254  2.043660
0.29000  2.351044  2.055692
0.30000  2.348354  2.084435
0.31000  2.361625  2.125252
0.32000  2.388301  2.173506
0.33000  2.425822  2.224561
0.34000  2.471636  2.273829
0.35000  2.522970  2.313705
0.36000  2.576122  2.323725
0.37000  2.630314  2.323869
0.38000  2.683430  2.315620
0.39000  2.733411  2.300048
0.40000  2.776369  2.278170
0.41000  2.805519  2.250694
0.42000  2.827264  2.219278
0.43000  2.841735  2.185115
0.44000  2.848885  2.149456
0.45000  2.848305  2.114728
0.46000  2.839252  2.084477
0.47000  2.823172  2.054883
0.48000  2.800480  2.025856
0.49000  2.771415  1.997324
0.50000  2.737603  1.967574
0.51000  2.700764  1.934722
0.52000  2.657433  1.903712
0.53000  2.606900  1.875862
0.54000  2.548706  1.852421
0.55000  2.477940  1.834908
0.56000  2.391179  1.824749
0.57000  2.298247  1.822568
0.58000  2.201368  1.829451
0.59000  2.102607  1.846289
0.60000  2.006822  1.877807
0.61000  1.917130  1.926347
0.62000  1.830121  1.985327
0.63000  1.746458  2.053735
0.64000  1.666745  2.130431
0.65000  1.591944  2.215719
0.66000  1.522716  2.308684
0.67000  1.459061  2.405752
0.68000  1.401485  2.505086
0.69000  1.350147  2.605323
0.70000  1.308842  2.700280
0.71000  1.277696  2.788593
0.72000  1.251963  2.875185
0.73000  1.230646  2.960120
0.74000  1.212715  3.043608
0.75000  1.194740  3.126410
0.76000  1.176222  3.208536
0.77000  1.159275  3.289673
0.78000  1.143788  3.369617
0.79000  1.129663  3.448425
0.80000  1.117038  3.525918
0.81000  1.105745  3.602155
0.82000  1.095448  3.677328
0.83000  1.085986  3.751492
0.84000  1.077196  3.824705
0.85000  1.068523  3.896868
0.86000  1.060030  3.968127
0.87000  1.051964  4.038717
0.88000  1.044320  4.108688
0.89000  1.037069  4.178371
0.90000  1.030223  4.247684
0.91000  1.023604  4.319156
0.92000  1.017208  4.392921
0.93000  1.011101  4.468182
0.94000  1.005343  4.544141
0.95000  1.000000  4.620000
0.96000  0.996440  4.687176
0.97000  0.993438  4.752549
0.98000  0.990878  4.816387
0.99000  0.988645  4.878958
1.00000  0.986624  4.940531
1.01000  0.984698  5.001373
1.02000  0.982751  5.061754
1.03000  0.980669  5.121941
1.04000  0.976805  5.185000
1.05000  0.971979  5.249489
1.06000  0.966894  5.314180
1.07000  0.961601  5.379036
1.08000  0.956152  5.444019
1.09000  0.950599  5.509090
1.10000  0.944993  5.574213
1.11000  0.939386  5.639348
1.12000  0.933831  5.704458
1.13000  0.928819  5.768796
1.14000  0.924996  5.831369
1.15000  0.921325  5.893892
1.16000  0.917773  5.956459
1.17000  0.914312  6.019166
1.18000  0.910909  6.082107
1.19000  0.907535  6.145379
1.20000  0.904157  6.209074
1.21000  0.900746  6.273289
1.22000  0.897270  6.338118
1.23000  0.893698  6.403657
1.24000  0.890000  6.470000
1.25000  0.885982  6.538220
1.26000  0.881984  6.606184
1.27000  0.878062  6.673120
1.28000  0.874242  6.738704
1.29000  0.870494  6.803601
1.30000  0.866816  6.868038
1.31000  0.863201  6.932237
1.32000  0.859577  6.996549
1.33000  0.855398  7.062160
1.34000  0.851392  7.127992
1.35000  0.847688  7.194033
1.36000  0.844412  7.260278
1.37000  0.841691  7.326716
1.38000  0.839975  7.393406
1.39000  0.840310  7.460529
1.40000  0.841317  7.527765
1.41000  0.842869  7.595052
1.42000  0.844837  7.662330
1.43000  0.847093  7.729535
1.44000  0.849509  7.796607
1.45000  0.850901  7.863115
1.46000  0.852037  7.929311
1.47000  0.853233  7.995288
1.48000  0.854536  8.061046
1.49000  0.855996  8.126584
1.50000  0.857661  8.191904
1.51000  0.859581  8.257007
1.52000  0.862505  8.321619
1.53000  0.865905  8.385966
1.54000  0.869559  8.450153
1.55000  0.873420  8.514217
1.56000  0.877442  8.578197
1.57000  0.881578  8.642129
1.58000  0.885779  8.706051
1.59000  0.890000  8.770000
1.60000  0.893536  8.834834
1.61000  0.897043  8.899713
1.62000  0.900533  8.964601
1.63000  0.904019  9.029461
1.64000  0.907515  9.094255
1.65000  0.911031  9.158950
1.66000  0.914582  9.223506
1.67000  0.918180  9.287887
1.68000  0.922005  9.351600
1.69000  0.926066  9.414623
1.70000  0.930183  9.477437
1.71000  0.934345  9.540071
1.72000  0.938540  9.602554
1.73000  0.942755  9.664919
1.74000  0.946980  9.727194
1.75000  0.951200  9.789409
1.76000  0.955406  9.851594
1.77000  0.959584  9.913780
1.78000  0.963312  9.976133
1.79000  0.966957  10.038560
1.80000  0.970578  10.101060
1.81000  0.974189  10.163660
1.82000  0.977805  10.226380
1.83000  0.981440  10.289240
1.84000  0.985108  10.352260
1.85000  0.988823  10.415470
1.86000  0.992601  10.478880
1.87000  0.996455  10.542520
1.88000  1.000428  10.606610
1.89000  1.004770  10.672840
1.90000  1.009221  10.739290
1.91000  1.013784  10.805900
1.92000  1.018459  10.872580
1.93000  1.023247  10.939270
1.94000  1.028149  11.005890
1.95000  1.033165  11.072360
1.96000  1.038297  11.138620
1.97000  1.043546  11.204590
1.98000  1.048912  11.270190
1.99000  1.054396  11.335350
2.00000  1.060000  11.400000
2.01000  1.066018  11.460870
2.02000  1.072153  11.521130
2.03000  1.078394  11.580810
2.04000  1.084733  11.639970
2.05000  1.091159  11.698630
2.06000  1.097664  11.756850
2.07000  1.104237  11.814650
2.08000  1.110869  11.872090
2.09000  1.117550  11.929190
2.10000  1.124270  11.986010
2.11000  1.131021  12.042580
2.12000  1.137792  12.098940
2.13000  1.144574  12.155140
2.14000  1.151275  12.211250
2.15000  1.157642  12.267440
2.16000  1.163998  12.323590
2.17000  1.170342  12.379720
2.18000  1.176678  12.435870
2.19000  1.183005  12.492070
2.20000  1.189327  12.548360
2.21000  1.195644  12.604770
2.22000  1.201958  12.661340
2.23000  1.208270  12.718110
2.24000  1.214582  12.775090
2.25000  1.220896  12.832340
2.26000  1.227212  12.889880
2.27000  1.233533  12.947750
2.28000  1.239860  13.005980
2.29000  1.246195  13.064620
2.30000  1.252539  13.123680
2.31000  1.258893  13.183210
2.32000  1.265259  13.243240
2.33000  1.271639  13.303810
2.34000  1.278034  13.364950
2.35000  1.284446  13.426690
2.36000  1.290875  13.489070
2.37000  1.297325  13.552120
2.38000  1.303795  13.615880
2.39000  1.310289  13.680390
2.40000  1.316806  13.745670
2.41000  1.323349  13.811760
2.42000  1.329920  13.878700
2.43000  1.336519  13.946510
2.44000  1.343149  14.015240
2.45000  1.349810  14.084920
2.46000  1.356505  14.155590
2.47000  1.363234  14.227270
2.48000  1.370000  14.300000
