; From SOPRA S.A. http://www.sopra-sa.com/indices.htm
; Filename    Symbol               Range (nm)     Description
; TAOX1       Ta2O5               300      850    Tantalum Oxide
; lambda/um       n         k
0.30000  1.962278  0.000000
0.30500  1.953154  0.000000
0.31000  1.944644  0.000000
0.31500  1.936695  0.000000
0.32000  1.929260  0.000000
0.32500  1.922298  0.000000
0.33000  1.915770  0.000000
0.33500  1.909641  0.000000
0.34000  1.903881  0.000000
0.34500  1.898461  0.000000
0.35000  1.893356  0.000000
0.35500  1.888543  0.000000
0.36000  1.883999  0.000000
0.36500  1.879706  0.000000
0.37000  1.875645  0.000000
0.37500  1.871802  0.000000
0.38000  1.868160  0.000000
0.38500  1.864706  0.000000
0.39000  1.861428  0.000000
0.39500  1.858313  0.000000
0.40000  1.855353  0.000000
0.40500  1.852536  0.000000
0.41000  1.849853  0.000000
0.41500  1.847297  0.000000
0.42000  1.844859  0.000000
0.42500  1.842533  0.000000
0.43000  1.840312  0.000000
0.43500  1.838189  0.000000
0.44000  1.836160  0.000000
0.44500  1.834218  0.000000
0.45000  1.832358  0.000000
0.45500  1.830577  0.000000
0.46000  1.828870  0.000000
0.46500  1.827232  0.000000
0.47000  1.825660  0.000000
0.47500  1.824151  0.000000
0.48000  1.822702  0.000000
0.48500  1.821308  0.000000
0.49000  1.819968  0.000000
0.49500  1.818679  0.000000
0.50000  1.817438  0.000000
0.50500  1.816243  0.000000
0.51000  1.815091  0.000000
0.51500  1.813981  0.000000
0.52000  1.812910  0.000000
0.52500  1.811877  0.000000
0.53000  1.810880  0.000000
0.53500  1.809917  0.000000
0.54000  1.808987  0.000000
0.54500  1.808088  0.000000
0.55000  1.807219  0.000000
0.55500  1.806378  0.000000
0.56000  1.805565  0.000000
0.56500  1.804778  0.000000
0.57000  1.804016  0.000000
0.57500  1.803277  0.000000
0.58000  1.802562  0.000000
0.58500  1.801869  0.000000
0.59000  1.801197  0.000000
0.59500  1.800545  0.000000
0.60000  1.799913  0.000000
0.60500  1.799299  0.000000
0.61000  1.798703  0.000000
0.61500  1.798125  0.000000
0.62000  1.797563  0.000000
0.62500  1.797017  0.000000
0.63000  1.796486  0.000000
0.63500  1.795971  0.000000
0.64000  1.795469  0.000000
0.64500  1.794981  0.000000
0.65000  1.794506  0.000000
0.65500  1.794044  0.000000
0.66000  1.793595  0.000000
0.66500  1.793157  0.000000
0.67000  1.792730  0.000000
0.67500  1.792315  0.000000
0.68000  1.791910  0.000000
0.68500  1.791516  0.000000
0.69000  1.791131  0.000000
0.69500  1.790756  0.000000
0.70000  1.790390  0.000000
0.70500  1.790034  0.000000
0.71000  1.789686  0.000000
0.71500  1.789346  0.000000
0.72000  1.789014  0.000000
0.72500  1.788691  0.000000
0.73000  1.788375  0.000000
0.73500  1.788066  0.000000
0.74000  1.787764  0.000000
0.74500  1.787470  0.000000
0.75000  1.787182  0.000000
0.75500  1.786901  0.000000
0.76000  1.786626  0.000000
0.76500  1.786356  0.000000
0.77000  1.786093  0.000000
0.77500  1.785836  0.000000
0.78000  1.785585  0.000000
0.78500  1.785338  0.000000
0.79000  1.785097  0.000000
0.79500  1.784861  0.000000
0.80000  1.784631  0.000000
0.80500  1.784405  0.000000
0.81000  1.784183  0.000000
0.81500  1.783966  0.000000
0.82000  1.783754  0.000000
0.82500  1.783546  0.000000
0.83000  1.783342  0.000000
0.83500  1.783143  0.000000
0.84000  1.782947  0.000000
0.84500  1.782755  0.000000
0.85000  1.782567  0.000000
