; From SOPRA S.A. http://www.sopra-sa.com/indices.htm
; Filename    Symbol               Range (nm)     Description
; TASI2-B     TaSi2               123    24797    Tantalum Silicide (parallel to c axis)
; lambda/um       n         k
0.12399  0.441000  0.880000
0.12461  0.440813  0.886250
0.12524  0.440000  0.891000
0.12587  0.438188  0.895250
0.12652  0.435000  0.900000
0.12716  0.429063  0.907063
0.12782  0.423000  0.915000
0.12848  0.419813  0.922938
0.12915  0.417000  0.931000
0.12983  0.412875  0.938688
0.13051  0.408000  0.947000
0.13120  0.401875  0.957313
0.13190  0.396000  0.968000
0.13260  0.392750  0.977187
0.13332  0.389000  0.987000
0.13404  0.381000  0.999250
0.13477  0.373000  1.013000
0.13550  0.368750  1.028250
0.13625  0.366000  1.044000
0.13700  0.364000  1.058812
0.13776  0.362000  1.074000
0.13853  0.358188  1.090500
0.13931  0.355000  1.108000
0.14010  0.354688  1.127125
0.14089  0.356000  1.146000
0.14170  0.359000  1.162250
0.14251  0.362000  1.178000
0.14334  0.362625  1.194625
0.14417  0.363000  1.212000
0.14501  0.364375  1.230937
0.14586  0.367000  1.250000
0.14673  0.372313  1.267687
0.14760  0.378000  1.285000
0.14849  0.381562  1.302250
0.14938  0.385000  1.320000
0.15029  0.389375  1.339375
0.15120  0.395000  1.359000
0.15213  0.402938  1.377313
0.15307  0.412000  1.396000
0.15402  0.421625  1.417438
0.15498  0.431000  1.438000
0.15596  0.438313  1.453375
0.15694  0.446000  1.468000
0.15794  0.456500  1.485813
0.15896  0.468000  1.504000
0.15998  0.479313  1.520813
0.16102  0.491000  1.537000
0.16207  0.503437  1.552562
0.16314  0.516000  1.568000
0.16422  0.527875  1.584250
0.16531  0.540000  1.600000
0.16642  0.553375  1.613563
0.16755  0.567000  1.627000
0.16869  0.579813  1.642375
0.16984  0.593000  1.658000
0.17101  0.607688  1.673125
0.17220  0.623000  1.687000
0.17341  0.638500  1.697625
0.17463  0.654000  1.708000
0.17587  0.668875  1.721750
0.17712  0.684000  1.735000
0.17840  0.700750  1.744250
0.17969  0.717000  1.752000
0.18100  0.730500  1.759437
0.18233  0.743000  1.767000
0.18368  0.755813  1.775938
0.18505  0.768000  1.785000
0.18644  0.778812  1.793062
0.18786  0.789000  1.801000
0.18929  0.799313  1.809125
0.19075  0.809000  1.818000
0.19223  0.817438  1.828375
0.19373  0.825000  1.840000
0.19525  0.831313  1.852875
0.19680  0.838000  1.867000
0.19838  0.847188  1.882375
0.19998  0.857000  1.899000
0.20160  0.865250  1.920562
0.20325  0.875000  1.936000
0.20493  0.889437  1.923438
0.20664  0.906000  1.919000
0.20838  0.922813  1.966750
0.21014  0.941000  2.021000
0.21194  0.961188  2.042875
0.21377  0.983000  2.056000
0.21563  1.006563  2.072688
0.21752  1.031000  2.088000
0.21944  1.055937  2.100500
0.22140  1.080000  2.112000
0.22340  1.100812  2.124062
0.22543  1.121000  2.136000
0.22750  1.142563  2.147187
0.22960  1.165000  2.159000
0.23175  1.191938  2.174125
0.23393  1.213000  2.188000
0.23616  1.207500  2.195188
0.23843  1.210000  2.201000
0.24075  1.263062  2.210625
0.24311  1.322000  2.219000
0.24552  1.348375  2.221313
0.24797  1.366000  2.222000
0.25048  1.387938  2.224125
0.25303  1.408000  2.227000
0.25564  1.423250  2.230438
0.25830  1.437000  2.236000
0.26102  1.452000  2.245375
0.26380  1.467000  2.258000
0.26663  1.480125  2.273812
0.26953  1.496000  2.293000
0.27249  1.519187  2.317750
0.27552  1.548000  2.342000
0.27862  1.582500  2.359437
0.28178  1.622000  2.373000
0.28502  1.667375  2.384750
0.28834  1.714000  2.391000
0.29173  1.757500  2.388438
0.29520  1.798000  2.378000
0.29876  1.836125  2.356563
0.30240  1.866000  2.333000
0.30614  1.878438  2.315687
0.30996  1.884000  2.303000
0.31389  1.891062  2.296250
0.31791  1.897000  2.295000
0.32204  1.900750  2.299500
0.32628  1.906000  2.309000
0.33063  1.916687  2.323875
0.33510  1.931000  2.341000
0.33969  1.948062  2.356625
0.34440  1.969000  2.373000
0.34925  1.995375  2.393125
0.35424  2.025000  2.411000
0.35938  2.057375  2.419750
0.36466  2.089000  2.425000
0.37011  2.114875  2.429812
0.37571  2.139000  2.435000
0.38149  2.163875  2.442875
0.38745  2.189000  2.452000
0.39360  2.215250  2.461625
0.39995  2.241000  2.472000
0.40651  2.263937  2.482938
0.41328  2.287000  2.495000
0.42029  2.312750  2.507875
0.42754  2.340000  2.524000
0.43504  2.366937  2.547312
0.44280  2.398000  2.573000
0.45086  2.438375  2.597875
0.45920  2.484000  2.621000
0.46787  2.532000  2.639812
0.47687  2.584000  2.656000
0.48622  2.641313  2.671000
0.49594  2.702000  2.683000
0.50606  2.763563  2.692000
0.51660  2.829000  2.694000
0.52760  2.904063  2.685000
0.53907  2.978000  2.665000
0.55105  3.042062  2.631000
0.56357  3.096000  2.588000
0.57668  3.137312  2.537875
0.59041  3.164000  2.487000
0.60481  3.171375  2.440562
0.61993  3.165000  2.404000
0.63582  3.146625  2.384313
0.65255  3.123000  2.382000
0.67019  3.099625  2.399875
0.68881  3.082000  2.438000
0.70849  3.073875  2.499750
0.72932  3.086000  2.578000
0.75143  3.129000  2.670313
0.77491  3.207000  2.766000
0.79990  3.327250  2.866688
0.82657  3.491000  2.933000
0.85507  3.729375  2.928000
0.88561  3.960000  2.846000
0.91841  4.107812  2.641313
0.95373  4.182000  2.397000
0.99188  4.158937  2.179500
1.03321  4.062000  1.993000
1.07813  3.896187  1.866750
1.12714  3.693000  1.792000
1.18081  3.492937  1.766375
1.23985  3.274000  1.800000
1.30511  3.013062  1.897562
1.37761  2.754000  2.073000
1.45865  2.531500  2.350750
1.54981  2.350000  2.704000
1.65314  2.222312  3.115313
1.77122  2.158000  3.581000
1.90746  2.177438  4.091500
2.06642  2.261000  4.647000
2.25428  2.388125  5.234187
2.47970  2.582000  5.884000
2.75523  2.849437  6.611312
3.09963  3.219000  7.451000
3.54243  3.689875  8.395375
4.13284  4.357000  9.587000
4.95941  5.258875  11.192880
6.19926  6.564000  13.132000
8.26568  8.408375  15.385380
12.39852  10.928000  17.934000
24.79704  18.413000  29.024000
