; From SOPRA S.A. http://www.sopra-sa.com/indices.htm
; Filename    Symbol               Range (nm)     Description
; TIO2        TiO2                180     1500    Titanium Dioxide (probably crystal)
; lambda/um       n         k
0.18000  1.370190  1.997964
0.19000  1.534815  1.831156
0.20000  1.535841  1.695833
0.21000  1.460000  1.650000
0.22000  1.432837  1.806336
0.23000  1.442563  2.084044
0.24000  1.362580  2.453466
0.25000  1.365019  2.847270
0.26000  1.627345  3.197447
0.27000  1.951944  3.431820
0.28000  3.355264  3.560599
0.29000  3.834933  3.534669
0.30000  4.731623  3.280252
0.31000  5.235255  2.734377
0.32000  5.391313  2.075890
0.33000  5.291131  1.569794
0.34000  4.968719  1.092588
0.35000  4.477277  0.650811
0.36000  3.870000  0.251000
0.37000  3.661326  0.033002
0.38000  3.498406  0.000000
0.39000  3.375304  0.000000
0.40000  3.286087  0.000000
0.41000  3.224818  0.000000
0.42000  3.185565  0.000000
0.43000  3.162391  0.000000
0.44000  3.149362  0.000000
0.45000  3.140544  0.000000
0.46000  3.130000  0.000000
0.47000  3.104125  0.000000
0.48000  3.080000  0.000000
0.49000  3.053750  0.000000
0.50000  3.030000  0.000000
0.51000  3.013750  0.000000
0.52000  3.000000  0.000000
0.53000  2.985000  0.000000
0.54000  2.970000  0.000000
0.55000  2.954375  0.000000
0.56000  2.940000  0.000000
0.57000  2.929375  0.000000
0.58000  2.920000  0.000000
0.59000  2.910000  0.000000
0.60000  2.900000  0.000000
0.61000  2.889375  0.000000
0.62000  2.880000  0.000000
0.63000  2.875000  0.000000
0.64000  2.870000  0.000000
0.65000  2.860000  0.000000
0.66000  2.850000  0.000000
0.67000  2.844375  0.000000
0.68000  2.840000  0.000000
0.69000  2.835000  0.000000
0.70000  2.830000  0.000000
0.71000  2.825000  0.000000
0.72000  2.820000  0.000000
0.73000  2.814375  0.000000
0.74000  2.810000  0.000000
0.75000  2.810000  0.000000
0.76000  2.810000  0.000000
0.77000  2.805625  0.000000
0.78000  2.800000  0.000000
0.79000  2.794375  0.000000
0.80000  2.790000  0.000000
0.81000  2.790000  0.000000
0.82000  2.790000  0.000000
0.83000  2.785000  0.000000
0.84000  2.780000  0.000000
0.85000  2.780000  0.000000
0.86000  2.780000  0.000000
0.87000  2.775000  0.000000
0.88000  2.770000  0.000000
0.89000  2.770000  0.000000
0.90000  2.770000  0.000000
0.91000  2.765000  0.000000
0.92000  2.760000  0.000000
0.93000  2.759375  0.000000
0.94000  2.760000  0.000000
0.95000  2.760625  0.000000
0.96000  2.760000  0.000000
0.97000  2.755000  0.000000
0.98000  2.750000  0.000000
0.99000  2.748996  0.000000
1.00000  2.750000  0.000000
1.01000  2.749750  0.000000
1.02000  2.749351  0.000000
1.03000  2.748815  0.000000
1.04000  2.748156  0.000000
1.05000  2.747386  0.000000
1.06000  2.746520  0.000000
1.07000  2.745568  0.000000
1.08000  2.744545  0.000000
1.09000  2.743464  0.000000
1.10000  2.742338  0.000000
1.11000  2.741179  0.000000
1.12000  2.740000  0.000000
1.13000  2.739000  0.000000
1.14000  2.737990  0.000000
1.15000  2.736974  0.000000
1.16000  2.735957  0.000000
1.17000  2.734940  0.000000
1.18000  2.733929  0.000000
1.19000  2.732925  0.000000
1.20000  2.731934  0.000000
1.21000  2.730958  0.000000
1.22000  2.730000  0.000000
1.23000  2.729331  0.000000
1.24000  2.728702  0.000000
1.25000  2.728108  0.000000
1.26000  2.727544  0.000000
1.27000  2.727005  0.000000
1.28000  2.726486  0.000000
1.29000  2.725982  0.000000
1.30000  2.725489  0.000000
1.31000  2.725000  0.000000
1.32000  2.724511  0.000000
1.33000  2.724018  0.000000
1.34000  2.723514  0.000000
1.35000  2.722995  0.000000
1.36000  2.722456  0.000000
1.37000  2.721892  0.000000
1.38000  2.721298  0.000000
1.39000  2.720669  0.000000
1.40000  2.720000  0.000000
1.41000  2.719286  0.000000
1.42000  2.718521  0.000000
1.43000  2.717702  0.000000
1.44000  2.716822  0.000000
1.45000  2.715877  0.000000
1.46000  2.714862  0.000000
1.47000  2.713772  0.000000
1.48000  2.712601  0.000000
1.49000  2.711346  0.000000
1.50000  2.710000  0.000000
