; From SOPRA S.A. http://www.sopra-sa.com/indices.htm
; Filename    Symbol               Range (nm)     Description
; TISI-A      TiSi2                63    12398    Titanium Silicide
; lambda/um       n         k
0.06358  0.640000  0.040000
0.06391  0.624000  0.039000
0.06424  0.611000  0.041000
0.06458  0.597000  0.045000
0.06491  0.583000  0.051000
0.06526  0.571000  0.058000
0.06560  0.558000  0.068000
0.06595  0.550000  0.078000
0.06630  0.538000  0.088000
0.06666  0.531000  0.100000
0.06702  0.524000  0.111000
0.06738  0.517000  0.122000
0.06775  0.512000  0.134000
0.06812  0.507000  0.146000
0.06850  0.504000  0.157000
0.06888  0.500000  0.167000
0.06927  0.497000  0.178000
0.06965  0.495000  0.189000
0.07005  0.493000  0.199000
0.07045  0.491000  0.209000
0.07085  0.489000  0.219000
0.07126  0.488000  0.229000
0.07167  0.487000  0.238000
0.07208  0.486000  0.246000
0.07251  0.485000  0.255000
0.07293  0.484000  0.264000
0.07336  0.483000  0.272000
0.07380  0.482000  0.281000
0.07424  0.481000  0.290000
0.07469  0.480000  0.298000
0.07514  0.478000  0.306000
0.07560  0.477000  0.315000
0.07606  0.476000  0.324000
0.07653  0.475000  0.332000
0.07701  0.473000  0.342000
0.07749  0.474000  0.351000
0.07798  0.473000  0.360000
0.07847  0.473000  0.370000
0.07897  0.473000  0.378000
0.07948  0.472000  0.388000
0.07999  0.472000  0.397000
0.08051  0.472000  0.406000
0.08104  0.472000  0.416000
0.08157  0.473000  0.426000
0.08211  0.474000  0.435000
0.08266  0.475000  0.445000
0.08321  0.476000  0.455000
0.08377  0.478000  0.464000
0.08434  0.480000  0.474000
0.08492  0.482000  0.481000
0.08551  0.484000  0.491000
0.08610  0.487000  0.501000
0.08670  0.490000  0.509000
0.08731  0.492000  0.517000
0.08793  0.495000  0.525000
0.08856  0.498000  0.532000
0.08920  0.500000  0.539000
0.08984  0.501000  0.547000
0.09050  0.504000  0.555000
0.09117  0.507000  0.561000
0.09184  0.507000  0.568000
0.09253  0.509000  0.576000
0.09322  0.509000  0.584000
0.09393  0.511000  0.592000
0.09465  0.513000  0.600000
0.09537  0.515000  0.608000
0.09611  0.516000  0.617000
0.09686  0.520000  0.626000
0.09763  0.524000  0.633000
0.09840  0.516000  0.639000
0.09919  0.519000  0.647000
0.09999  0.533000  0.653000
0.10080  0.536000  0.658000
0.10163  0.539000  0.663000
0.10247  0.540000  0.666000
0.10332  0.540000  0.669000
0.10419  0.539000  0.673000
0.10507  0.538000  0.676000
0.10597  0.534000  0.679000
0.10688  0.527000  0.684000
0.10781  0.510000  0.693000
0.10876  0.516000  0.703000
0.10972  0.510000  0.712000
0.11070  0.501000  0.724000
0.11170  0.496000  0.739000
0.11271  0.492000  0.756000
0.11375  0.491000  0.172000
0.11480  0.491000  0.789000
0.11587  0.494000  0.805000
0.11697  0.498000  0.812000
0.11808  0.506000  0.834000
0.11922  0.511000  0.843000
0.12037  0.516000  0.851000
0.12155  0.520000  0.854000
0.12276  0.516000  0.859000
0.12399  0.513000  0.865000
0.12524  0.506000  0.869000
0.12652  0.493000  0.819000
0.12782  0.483000  0.893000
0.12915  0.412000  0.910000
0.13051  0.462000  0.929000
0.13190  0.454000  0.950000
0.13332  0.446000  0.912000
0.13477  0.440000  0.995000
0.13625  0.434000  1.021000
0.13776  0.429000  1.041000
0.13931  0.424000  1.016000
0.14089  0.424000  1.106000
0.14251  0.425000  1.135000
0.14417  0.426000  1.164000
0.14586  0.421000  1.195000
0.14760  0.431000  1.228000
0.14938  0.437000  1.260000
0.15120  0.444000  1.191000
0.15307  0.451000  1.314000
0.15498  0.462000  1.362000
0.15694  0.470000  1.388000
0.15896  0.480000  1.421000
0.16102  0.491000  1.456000
0.16314  0.503000  1.490000
0.16531  0.520000  1.517000
0.16755  0.537000  1.560000
0.16984  0.554000  1.595000
0.17220  0.573000  1.626000
0.17463  0.592000  1.662000
0.17712  0.609000  1.695000
0.17969  0.629000  1.731000
0.18233  0.650000  1.771000
0.18505  0.673000  1.810000
0.18786  0.699000  1.853000
0.19075  0.730000  1.894000
0.19373  0.768000  1.931000
0.19680  0.807000  1.977000
0.19998  0.851000  2.013000
0.20325  0.895000  2.048000
0.20664  0.946000  2.081000
0.21014  0.998000  2.108000
0.21377  1.045000  2.128000
0.21752  1.093000  2.152000
0.22140  1.143000  2.174000
0.22543  1.193000  2.196000
0.22960  1.251000  2.216000
0.23393  1.306000  2.229000
0.23843  1.363000  2.239000
0.24311  1.420000  2.243000
0.24797  1.471000  2.242000
0.25303  1.523000  2.242000
0.25830  1.570000  2.237000
0.26380  1.614000  2.236000
0.26953  1.659000  2.131000
0.27552  1.701000  2.224000
0.28178  1.738000  2.118000
0.28834  1.775000  2.209000
0.29520  1.805000  2.202000
0.30240  1.834000  2.198000
0.30996  1.862000  2.194000
0.31791  1.885000  2.194000
0.32628  1.907000  2.203000
0.33510  1.940000  2.204000
0.34440  1.966000  2.202000
0.35424  1.978000  2.202000
0.36466  1.986000  2.216000
0.37571  1.998000  2.243000
0.38745  2.024000  2.274000
0.39995  2.054000  2.302000
0.41328  2.089000  2.311000
0.42754  2.105000  2.338000
0.44280  2.114000  2.371000
0.45920  2.125000  2.423000
0.47687  2.148000  2.486000
0.49594  2.179000  2.560000
0.51660  2.226000  2.644000
0.53907  2.294000  2.734000
0.56357  2.384000  2.824000
0.59041  2.504000  2.901000
0.61993  2.648000  2.943000
0.65255  2.780000  2.934000
0.68881  2.862000  2.889000
0.72932  2.891000  2.881000
0.77491  2.894000  2.919000
0.82657  2.936000  3.022000
0.88561  3.052000  3.079000
0.95373  3.113000  3.075000
1.03321  3.152000  3.069000
1.12714  3.044000  2.949000
1.23985  2.667000  3.071000
1.37761  2.300000  3.476000
1.54981  2.061000  4.128000
1.77122  1.905000  4.859000
2.06642  1.647000  5.791000
2.47970  1.279000  7.306000
3.09963  0.989000  9.703000
4.13284  0.948000  13.629000
6.19926  1.106000  21.248000
12.39852  1.809000  35.673000
