; From SOPRA S.A. http://www.sopra-sa.com/indices.htm
; Filename    Symbol               Range (nm)     Description
; W           W                   190     2479    Tungsten
; lambda/um       n         k
0.19075  1.260000  2.950000
0.19148  1.270625  2.971016
0.19223  1.282500  2.993125
0.19297  1.295625  3.016172
0.19373  1.310000  3.040000
0.19449  1.325625  3.064453
0.19525  1.342500  3.089375
0.19602  1.360625  3.114610
0.19680  1.380000  3.140000
0.19759  1.400625  3.165391
0.19838  1.422500  3.190625
0.19917  1.445625  3.215547
0.19998  1.470000  3.240000
0.20079  1.496015  3.263047
0.20160  1.523125  3.285625
0.20242  1.551172  3.307891
0.20325  1.580000  3.330000
0.20409  1.609104  3.352000
0.20493  1.638815  3.374200
0.20578  1.669120  3.396800
0.20664  1.700000  3.420000
0.20751  1.731440  3.444000
0.20838  1.763520  3.468000
0.20926  1.796880  3.492000
0.21014  1.832160  3.516000
0.21104  1.870000  3.540000
0.21194  1.912160  3.565120
0.21285  1.956880  3.588960
0.21377  2.003200  3.608960
0.21469  2.050800  3.625120
0.21563  2.100000  3.640000
0.21657  2.150800  3.657120
0.21752  2.203200  3.672960
0.21848  2.257200  3.685600
0.21944  2.312800  3.694400
0.22042  2.370000  3.700000
0.22140  2.428800  3.702400
0.22239  2.489201  3.701600
0.22340  2.551840  3.698240
0.22441  2.616080  3.691680
0.22543  2.680000  3.680000
0.22646  2.741200  3.659120
0.22750  2.800801  3.633760
0.22854  2.859120  3.607440
0.22960  2.915840  3.580480
0.23067  2.970000  3.550000
0.23175  3.019840  3.511920
0.23284  3.067120  3.470960
0.23393  3.113120  3.430321
0.23504  3.157840  3.390640
0.23616  3.200000  3.350000
0.23729  3.238400  3.307760
0.23843  3.273600  3.263280
0.23958  3.305920  3.215281
0.24075  3.335040  3.163760
0.24192  3.360000  3.110000
0.24311  3.380160  3.053520
0.24431  3.394880  2.997360
0.24552  3.402560  2.944721
0.24674  3.403520  2.896240
0.24797  3.400000  2.850000
0.24922  3.393280  2.804240
0.25048  3.384640  2.760720
0.25175  3.376000  2.720400
0.25303  3.368000  2.683600
0.25433  3.360000  2.650000
0.25564  3.352560  2.620160
0.25696  3.344480  2.592880
0.25830  3.334480  2.567200
0.25965  3.322560  2.542800
0.26102  3.310000  2.520000
0.26240  3.298000  2.498800
0.26380  3.286000  2.479200
0.26521  3.274000  2.461520
0.26663  3.262000  2.445440
0.26808  3.250000  2.430000
0.26953  3.238000  2.414000
0.27101  3.226000  2.398000
0.27249  3.214320  2.381360
0.27400  3.202640  2.364720
0.27552  3.190000  2.350000
0.27706  3.174640  2.340160
0.27862  3.158320  2.332880
0.28019  3.141680  2.327520
0.28178  3.125360  2.323440
0.28339  3.110000  2.320000
0.28502  3.097920  2.314880
0.28667  3.086160  2.311040
0.28834  3.072480  2.311040
0.29002  3.056560  2.314880
0.29173  3.040000  2.320000
0.29346  3.022880  2.322880
0.29520  3.007040  2.327040
0.29697  2.995040  2.335040
0.29876  2.986880  2.346880
0.30057  2.980000  2.360000
0.30240  2.971440  2.371440
0.30426  2.963520  2.383520
0.30614  2.957200  2.397520
0.30804  2.952800  2.413440
0.30996  2.950000  2.430000
0.31191  2.948240  2.445440
0.31389  2.948720  2.461520
0.31589  2.953040  2.480160
0.31791  2.960880  2.500720
0.31996  2.970000  2.520000
0.32204  2.977440  2.532160
0.32414  2.985520  2.543680
0.32628  2.995200  2.559680
0.32844  3.006800  2.580160
0.33063  3.020000  2.600000
0.33285  3.034800  2.613280
0.33510  3.051200  2.624640
0.33737  3.069200  2.636000
0.33969  3.088800  2.648000
0.34203  3.110000  2.660000
0.34440  3.132800  2.673120
0.34681  3.157200  2.684960
0.34925  3.182560  2.693600
0.35173  3.209520  2.698400
0.35424  3.240000  2.700000
0.35679  3.279760  2.700080
0.35938  3.320480  2.695040
0.36200  3.356400  2.680720
0.36466  3.385600  2.657440
0.36736  3.410000  2.630000
0.37011  3.430160  2.602640
0.37289  3.444880  2.574320
0.37571  3.452560  2.545360
0.37858  3.453520  2.516720
0.38149  3.450000  2.490000
0.38445  3.443840  2.467040
0.38745  3.435120  2.447920
0.39050  3.424160  2.433920
0.39360  3.411920  2.425040
0.39675  3.400000  2.420000
0.39995  3.391920  2.418720
0.40320  3.384160  2.419360
0.40651  3.374160  2.419680
0.40987  3.361920  2.419360
0.41328  3.350000  2.420000
0.41676  3.340800  2.422240
0.42029  3.333200  2.426720
0.42388  3.327840  2.435360
0.42754  3.324080  2.447520
0.43125  3.320000  2.460000
0.43504  3.310960  2.466960
0.43889  3.302880  2.474880
0.44280  3.300880  2.489200
0.44679  3.304960  2.509600
0.45086  3.310000  2.530000
0.45499  3.309520  2.542160
0.45920  3.309360  2.553680
0.46350  3.313040  2.570000
0.46787  3.320880  2.590800
0.47232  3.330000  2.610000
0.47687  3.337440  2.618240
0.48150  3.345520  2.625520
0.48622  3.354880  2.639200
0.49103  3.366160  2.659600
0.49594  3.380000  2.680000
0.50095  3.399280  2.694400
0.50606  3.419840  2.705600
0.51128  3.438800  2.713280
0.51660  3.455200  2.717760
0.52204  3.470000  2.720000
0.52760  3.484320  2.720080
0.53327  3.495760  2.719840
0.53907  3.501760  2.720880
0.54499  3.502320  2.724160
0.55105  3.500000  2.730000
0.55724  3.494400  2.738480
0.56357  3.490400  2.751440
0.57005  3.493760  2.773680
0.57668  3.505120  2.802960
0.58346  3.520000  2.830000
0.59041  3.535360  2.840080
0.59752  3.551680  2.846640
0.60481  3.567360  2.857040
0.61227  3.582720  2.872880
0.61993  3.600000  2.890000
0.62777  3.622160  2.907120
0.63582  3.646880  2.922960
0.64408  3.673200  2.936560
0.65255  3.700800  2.946320
0.66125  3.730000  2.950000
0.67019  3.763600  2.942880
0.67937  3.795600  2.929040
0.68881  3.821840  2.910720
0.69851  3.840080  2.888240
0.70849  3.850000  2.860000
0.71875  3.850320  2.820880
0.72932  3.839760  2.779840
0.74021  3.815120  2.741680
0.75143  3.777040  2.710560
0.76299  3.730000  2.690000
0.77491  3.674880  2.688880
0.78721  3.617840  2.700240
0.79990  3.566880  2.723120
0.81302  3.522960  2.754640
0.82657  3.480000  2.790000
0.84058  3.432640  2.818640
0.85507  3.384320  2.851120
0.87007  3.335360  2.893520
0.88561  3.286720  2.947440
0.90171  3.240000  3.010000
0.91841  3.198160  3.082800
0.93574  3.158880  3.160400
0.95373  3.120240  3.234480
0.97243  3.082880  3.306960
0.99188  3.050000  3.390000
1.01212  3.022960  3.505760
1.03321  3.004880  3.628880
1.05519  3.000880  3.743360
1.07813  3.010960  3.844720
1.10209  3.030000  3.940000
1.12714  3.057120  4.033280
1.15335  3.086160  4.119840
1.18081  3.112640  4.197760
1.20961  3.132080  4.265120
1.23985  3.140000  4.320000
1.27164  3.151641  4.370118
1.30511  3.153125  4.415937
1.34038  3.145596  4.441855
1.37761  3.110000  4.440000
1.41697  3.022793  4.380869
1.45865  2.784219  4.405234
1.50285  2.423574  4.566807
1.54981  2.273750  4.815625
1.59981  2.167490  5.104854
1.65314  1.926328  5.393672
1.71014  1.726847  5.736456
1.77122  1.590000  6.130000
1.83682  1.486465  6.531647
1.90746  1.396406  6.959531
1.98376  1.299336  7.420273
2.06642  1.210000  7.960000
2.15626  1.181875  8.563515
2.25428  1.211875  9.193125
2.36162  1.279297  9.847266
2.47970  1.400000  10.500000
