; From SOPRA S.A. http://www.sopra-sa.com/indices.htm
; Filename    Symbol               Range (nm)     Description
; WSI2-A      WSi2                165    12398    Tungsten Silicide (perpendicular to c axis)
; lambda/um       n         k
0.16531  0.619000  2.191000
0.16755  0.656000  2.247000
0.16984  0.706000  2.304000
0.17220  0.747000  2.354000
0.17463  0.792000  2.406000
0.17712  0.838000  2.455000
0.17969  0.895000  2.513000
0.18233  0.952000  2.533000
0.18505  0.987000  2.587000
0.18786  1.046000  2.625000
0.19075  1.090000  2.660000
0.19373  1.159000  2.702000
0.19680  1.210000  2.719000
0.19998  1.234000  2.758000
0.20325  1.295000  2.822000
0.20664  1.360000  2.842000
0.21014  1.393000  2.873000
0.21377  1.443000  2.936000
0.21752  1.493000  2.972000
0.22140  1.537000  3.057000
0.22543  1.660000  3.128000
0.22960  1.722000  3.127000
0.23393  1.794000  3.220000
0.23843  1.893000  3.257000
0.24311  1.995000  3.339000
0.24797  2.156000  3.382000
0.25303  2.259000  3.378000
0.25830  2.438000  3.448000
0.26380  2.614000  3.439000
0.26953  2.808000  3.299000
0.27552  2.847000  3.180000
0.28178  2.882000  3.174000
0.28834  2.967000  3.163000
0.29520  3.064000  3.137000
0.30240  3.161000  3.094000
0.30996  3.248000  3.036000
0.31791  3.313000  2.968000
0.32628  3.359000  2.925000
0.33510  3.411000  2.887000
0.34440  3.457000  2.858000
0.35424  3.508000  2.837000
0.36466  3.559000  2.831000
0.37571  3.633000  2.828000
0.38745  3.710000  2.810000
0.39995  3.793000  2.817000
0.41328  3.903000  2.817000
0.42754  4.021000  2.794000
0.44280  7.907000  2.367000
0.45920  22.900000  0.737000
0.47687  22.800000  0.724000
0.49594  22.700000  0.710000
0.51660  22.600000  0.693000
0.53907  22.500000  0.681000
0.56357  22.400000  0.671000
0.59041  22.300000  0.664000
0.61993  22.200000  0.652000
0.65255  22.100000  0.633000
0.68881  22.000000  0.613000
0.72932  21.900000  0.600000
0.77491  21.800000  0.591000
0.82657  21.700000  0.587000
0.88561  21.600000  0.576000
0.95373  21.500000  0.559000
1.03321  21.400000  0.543000
1.12714  21.300000  0.533000
1.23985  21.100000  0.528000
1.37761  21.100000  0.523000
1.54981  21.000000  0.517000
1.77122  20.900000  0.511000
2.06642  20.800000  0.506000
2.47970  20.700000  0.503000
3.09963  20.600000  0.500000
4.13284  20.500000  0.495000
6.19926  20.400000  0.489000
12.39852  20.320000  0.485000
