; From SOPRA S.A. http://www.sopra-sa.com/indices.htm
; Filename    Symbol               Range (nm)     Description
; ZNSCUB      ZnS                 206     1239    Zinc Sulfide (cubic)
; lambda/um       n         k
0.20664  2.240000  1.650000
0.20838  2.351000  1.725280
0.21014  2.465100  1.766240
0.21194  2.579700  1.776560
0.21377  2.692200  1.759920
0.21563  2.800000  1.720000
0.21752  2.900600  1.660480
0.21944  2.991500  1.585040
0.22140  3.070100  1.497360
0.22340  3.133800  1.401120
0.22543  3.180000  1.300000
0.22750  3.179000  1.202481
0.22960  3.162300  1.106240
0.23175  3.134100  1.013760
0.23393  3.098600  0.927520
0.23616  3.060000  0.850000
0.23843  3.039900  0.801600
0.24075  3.021000  0.762400
0.24311  3.003000  0.730400
0.24552  2.986100  0.703600
0.24797  2.970000  0.680000
0.25048  2.955700  0.648640
0.25303  2.941800  0.618720
0.25564  2.928200  0.590480
0.25830  2.914300  0.564160
0.26102  2.900000  0.540000
0.26380  2.882300  0.519840
0.26663  2.864200  0.501920
0.26953  2.845800  0.486080
0.27249  2.827700  0.472160
0.27552  2.810000  0.460000
0.27862  2.794100  0.448160
0.28178  2.779000  0.438080
0.28502  2.765000  0.429920
0.28834  2.751900  0.423840
0.29173  2.740000  0.420000
0.29520  2.724800  0.426240
0.29876  2.712000  0.433120
0.30240  2.702800  0.438880
0.30614  2.698400  0.441760
0.30996  2.700000  0.440000
0.31389  2.725400  0.421600
0.31791  2.755100  0.397600
0.32204  2.786100  0.368800
0.32628  2.815400  0.336000
0.33063  2.840000  0.300000
0.33510  2.842300  0.257760
0.33969  2.837800  0.214880
0.34440  2.827000  0.173120
0.34925  2.810900  0.134240
0.35424  2.790000  0.100000
0.35938  2.763200  0.083680
0.36466  2.733600  0.072640
0.37011  2.702400  0.065760
0.37571  2.670800  0.061920
0.38149  2.640000  0.060000
0.38745  2.616700  0.055680
0.39360  2.595200  0.051840
0.39995  2.575400  0.048160
0.40651  2.557000  0.044320
0.41328  2.540000  0.040000
0.42029  2.522900  0.029820
0.42754  2.507100  0.019785
0.43504  2.492700  0.010842
0.44280  2.479900  0.003934
0.45086  2.468700  0.000007
0.45920  2.459300  0.000007
0.46787  2.450200  0.000007
0.47687  2.441400  0.000006
0.48622  2.433000  0.000006
0.49594  2.424800  0.000005
0.50606  2.417000  0.000004
0.51660  2.409400  0.000004
0.52760  2.402100  0.000004
0.53907  2.395000  0.000004
0.55105  2.388200  0.000004
0.56357  2.381600  0.000004
0.57668  2.375300  0.000004
0.59041  2.369200  0.000004
0.60481  2.363300  0.000004
0.61993  2.357600  0.000004
0.63582  2.352000  0.000004
0.65255  2.346700  0.000004
0.67019  2.341600  0.000004
0.68881  2.336700  0.000004
0.70849  2.331900  0.000004
0.72932  2.327400  0.000004
0.75143  2.322900  0.000004
0.77491  2.318700  0.000004
0.79990  2.314600  0.000004
0.82657  2.310700  0.000003
0.85507  2.306900  0.000003
0.88561  2.303300  0.000003
0.91841  2.299800  0.000003
0.95373  2.296500  0.000003
0.99188  2.293300  0.000003
1.03321  2.290300  0.000000
1.07813  2.287400  0.000000
1.12714  2.284600  0.000000
1.18081  2.282000  0.000000
1.23985  2.279500  0.000000
