; Refractive index spectrum of a silicon dioxide film
; prepared with a Denton Vacuum Discovery 550 Sputtering System
; Q. Wang,  NIST, December 2014
;
; Sputter process conditions:
; RF power:    350 W
; Ar flow:     50 cm^3/s
; Ar pressure: 7 mTorr (1 Pa)
;
; lambda/um    n       k
0.2513  1.51502  0.00000
0.2529  1.51427  0.00000
0.2545  1.51353  0.00000
0.2561  1.51280  0.00000
0.2577  1.51209  0.00000
0.2593  1.51139  0.00000
0.2609  1.51070  0.00000
0.2625  1.51003  0.00000
0.2641  1.50937  0.00000
0.2657  1.50872  0.00000
0.2672  1.50808  0.00000
0.2688  1.50745  0.00000
0.2704  1.50683  0.00000
0.2720  1.50623  0.00000
0.2736  1.50563  0.00000
0.2752  1.50504  0.00000
0.2768  1.50447  0.00000
0.2784  1.50390  0.00000
0.2800  1.50335  0.00000
0.2816  1.50280  0.00000
0.2831  1.50226  0.00000
0.2847  1.50174  0.00000
0.2863  1.50122  0.00000
0.2879  1.50071  0.00000
0.2895  1.50020  0.00000
0.2911  1.49971  0.00000
0.2927  1.49922  0.00000
0.2943  1.49874  0.00000
0.2959  1.49827  0.00000
0.2975  1.49781  0.00000
0.2990  1.49735  0.00000
0.3006  1.49691  0.00000
0.3022  1.49646  0.00000
0.3038  1.49603  0.00000
0.3054  1.49560  0.00000
0.3070  1.49518  0.00000
0.3086  1.49476  0.00000
0.3102  1.49436  0.00000
0.3118  1.49395  0.00000
0.3134  1.49356  0.00000
0.3150  1.49317  0.00000
0.3165  1.49278  0.00000
0.3181  1.49240  0.00000
0.3197  1.49203  0.00000
0.3213  1.49167  0.00000
0.3229  1.49130  0.00000
0.3245  1.49095  0.00000
0.3261  1.49059  0.00000
0.3277  1.49025  0.00000
0.3293  1.48991  0.00000
0.3309  1.48957  0.00000
0.3325  1.48924  0.00000
0.3341  1.48891  0.00000
0.3356  1.48859  0.00000
0.3372  1.48827  0.00000
0.3388  1.48796  0.00000
0.3404  1.48765  0.00000
0.3420  1.48734  0.00000
0.3436  1.48704  0.00000
0.3452  1.48675  0.00000
0.3468  1.48646  0.00000
0.3484  1.48617  0.00000
0.3500  1.48588  0.00000
0.3516  1.48560  0.00000
0.3532  1.48533  0.00000
0.3547  1.48505  0.00000
0.3563  1.48478  0.00000
0.3579  1.48452  0.00000
0.3595  1.48426  0.00000
0.3611  1.48400  0.00000
0.3627  1.48374  0.00000
0.3643  1.48349  0.00000
0.3659  1.48324  0.00000
0.3675  1.48300  0.00000
0.3691  1.48275  0.00000
0.3707  1.48251  0.00000
0.3723  1.48228  0.00000
0.3738  1.48204  0.00000
0.3754  1.48181  0.00000
0.3770  1.48159  0.00000
0.3786  1.48136  0.00000
0.3802  1.48114  0.00000
0.3818  1.48092  0.00000
0.3834  1.48071  0.00000
0.3850  1.48049  0.00000
0.3866  1.48028  0.00000
0.3882  1.48007  0.00000
0.3898  1.47987  0.00000
0.3914  1.47966  0.00000
0.3930  1.47946  0.00000
0.3945  1.47927  0.00000
0.3961  1.47907  0.00000
0.3977  1.47888  0.00000
0.3993  1.47868  0.00000
0.4009  1.47849  0.00000
0.4025  1.47831  0.00000
0.4041  1.47812  0.00000
0.4057  1.47794  0.00000
0.4073  1.47776  0.00000
0.4089  1.47758  0.00000
0.4105  1.47741  0.00000
0.4121  1.47723  0.00000
0.4137  1.47706  0.00000
0.4152  1.47689  0.00000
0.4168  1.47672  0.00000
0.4184  1.47656  0.00000
0.4200  1.47639  0.00000
0.4216  1.47623  0.00000
0.4232  1.47607  0.00000
0.4248  1.47591  0.00000
0.4264  1.47575  0.00000
0.4280  1.47560  0.00000
0.4296  1.47544  0.00000
0.4312  1.47529  0.00000
0.4328  1.47514  0.00000
0.4344  1.47499  0.00000
0.4359  1.47485  0.00000
0.4375  1.47470  0.00000
0.4391  1.47456  0.00000
0.4407  1.47442  0.00000
0.4423  1.47428  0.00000
0.4439  1.47414  0.00000
0.4455  1.47400  0.00000
0.4471  1.47386  0.00000
0.4487  1.47373  0.00000
0.4503  1.47359  0.00000
0.4519  1.47346  0.00000
0.4535  1.47333  0.00000
0.4551  1.47320  0.00000
0.4566  1.47307  0.00000
0.4582  1.47295  0.00000
0.4598  1.47282  0.00000
0.4614  1.47270  0.00000
0.4630  1.47258  0.00000
0.4646  1.47246  0.00000
0.4662  1.47233  0.00000
0.4678  1.47222  0.00000
0.4694  1.47210  0.00000
0.4710  1.47198  0.00000
0.4726  1.47187  0.00000
0.4742  1.47175  0.00000
0.4758  1.47164  0.00000
0.4773  1.47153  0.00000
0.4789  1.47142  0.00000
0.4805  1.47131  0.00000
0.4821  1.47120  0.00000
0.4837  1.47109  0.00000
0.4853  1.47098  0.00000
0.4869  1.47088  0.00000
0.4885  1.47077  0.00000
0.4901  1.47067  0.00000
0.4917  1.47057  0.00000
0.4933  1.47047  0.00000
0.4949  1.47037  0.00000
0.4964  1.47027  0.00000
0.4980  1.47017  0.00000
0.4996  1.47007  0.00000
0.5012  1.46998  0.00000
0.5028  1.46988  0.00000
0.5044  1.46978  0.00000
0.5060  1.46969  0.00000
0.5076  1.46960  0.00000
0.5092  1.46951  0.00000
0.5108  1.46941  0.00000
0.5124  1.46932  0.00000
0.5140  1.46924  0.00000
0.5155  1.46915  0.00000
0.5171  1.46906  0.00000
0.5187  1.46897  0.00000
0.5203  1.46888  0.00000
0.5219  1.46880  0.00000
0.5235  1.46871  0.00000
0.5251  1.46863  0.00000
0.5267  1.46855  0.00000
0.5283  1.46847  0.00000
0.5299  1.46838  0.00000
0.5315  1.46830  0.00000
0.5330  1.46822  0.00000
0.5346  1.46814  0.00000
0.5362  1.46806  0.00000
0.5378  1.46799  0.00000
0.5394  1.46791  0.00000
0.5410  1.46783  0.00000
0.5426  1.46776  0.00000
0.5442  1.46768  0.00000
0.5458  1.46761  0.00000
0.5474  1.46753  0.00000
0.5490  1.46746  0.00000
0.5505  1.46739  0.00000
0.5521  1.46731  0.00000
0.5537  1.46724  0.00000
0.5553  1.46717  0.00000
0.5569  1.46710  0.00000
0.5585  1.46703  0.00000
0.5601  1.46696  0.00000
0.5617  1.46689  0.00000
0.5633  1.46683  0.00000
0.5649  1.46676  0.00000
0.5664  1.46669  0.00000
0.5680  1.46663  0.00000
0.5696  1.46656  0.00000
0.5712  1.46649  0.00000
0.5728  1.46643  0.00000
0.5744  1.46637  0.00000
0.5760  1.46630  0.00000
0.5776  1.46624  0.00000
0.5792  1.46618  0.00000
0.5808  1.46612  0.00000
0.5823  1.46605  0.00000
0.5839  1.46599  0.00000
0.5855  1.46593  0.00000
0.5871  1.46587  0.00000
0.5887  1.46581  0.00000
0.5903  1.46575  0.00000
0.5919  1.46569  0.00000
0.5935  1.46564  0.00000
0.5951  1.46558  0.00000
0.5966  1.46552  0.00000
0.5982  1.46547  0.00000
0.5998  1.46541  0.00000
0.6014  1.46535  0.00000
0.6030  1.46530  0.00000
0.6046  1.46524  0.00000
0.6062  1.46519  0.00000
0.6078  1.46514  0.00000
0.6094  1.46508  0.00000
0.6109  1.46503  0.00000
0.6125  1.46497  0.00000
0.6141  1.46492  0.00000
0.6157  1.46487  0.00000
0.6173  1.46482  0.00000
0.6189  1.46477  0.00000
0.6205  1.46472  0.00000
0.6221  1.46467  0.00000
0.6237  1.46462  0.00000
0.6252  1.46457  0.00000
0.6268  1.46452  0.00000
0.6284  1.46447  0.00000
0.6300  1.46442  0.00000
0.6316  1.46437  0.00000
0.6332  1.46433  0.00000
0.6348  1.46428  0.00000
0.6364  1.46423  0.00000
0.6379  1.46418  0.00000
0.6395  1.46414  0.00000
0.6411  1.46409  0.00000
0.6427  1.46405  0.00000
0.6443  1.46400  0.00000
0.6459  1.46396  0.00000
0.6475  1.46391  0.00000
0.6491  1.46387  0.00000
0.6506  1.46382  0.00000
0.6522  1.46378  0.00000
0.6538  1.46374  0.00000
0.6554  1.46369  0.00000
0.6570  1.46365  0.00000
0.6586  1.46361  0.00000
0.6602  1.46357  0.00000
0.6617  1.46352  0.00000
0.6633  1.46348  0.00000
0.6649  1.46344  0.00000
0.6665  1.46340  0.00000
0.6681  1.46336  0.00000
0.6697  1.46332  0.00000
0.6713  1.46328  0.00000
0.6728  1.46324  0.00000
0.6744  1.46320  0.00000
0.6760  1.46316  0.00000
0.6776  1.46312  0.00000
0.6792  1.46308  0.00000
0.6808  1.46305  0.00000
0.6824  1.46301  0.00000
0.6839  1.46297  0.00000
0.6855  1.46293  0.00000
0.6871  1.46290  0.00000
0.6887  1.46286  0.00000
0.6903  1.46282  0.00000
0.6919  1.46279  0.00000
0.6934  1.46275  0.00000
0.6950  1.46271  0.00000
0.6966  1.46268  0.00000
0.6982  1.46264  0.00000
0.6998  1.46261  0.00000
0.7014  1.46257  0.00000
0.7030  1.46254  0.00000
0.7045  1.46250  0.00000
0.7061  1.46247  0.00000
0.7077  1.46243  0.00000
0.7093  1.46240  0.00000
0.7109  1.46237  0.00000
0.7125  1.46233  0.00000
0.7140  1.46230  0.00000
0.7156  1.46227  0.00000
0.7172  1.46223  0.00000
0.7188  1.46220  0.00000
0.7204  1.46217  0.00000
0.7220  1.46214  0.00000
0.7235  1.46210  0.00000
0.7251  1.46207  0.00000
0.7267  1.46204  0.00000
0.7283  1.46201  0.00000
0.7299  1.46198  0.00000
0.7314  1.46195  0.00000
0.7330  1.46192  0.00000
0.7346  1.46189  0.00000
0.7362  1.46186  0.00000
0.7378  1.46183  0.00000
0.7394  1.46180  0.00000
0.7409  1.46177  0.00000
0.7425  1.46174  0.00000
0.7441  1.46171  0.00000
0.7457  1.46168  0.00000
0.7473  1.46165  0.00000
0.7488  1.46162  0.00000
0.7504  1.46159  0.00000
0.7520  1.46157  0.00000
0.7536  1.46154  0.00000
0.7552  1.46151  0.00000
0.7567  1.46148  0.00000
0.7583  1.46145  0.00000
0.7599  1.46143  0.00000
0.7615  1.46140  0.00000
0.7631  1.46137  0.00000
0.7646  1.46134  0.00000
0.7662  1.46132  0.00000
0.7678  1.46129  0.00000
0.7694  1.46127  0.00000
0.7710  1.46124  0.00000
0.7725  1.46121  0.00000
0.7741  1.46119  0.00000
0.7757  1.46116  0.00000
0.7773  1.46114  0.00000
0.7789  1.46111  0.00000
0.7804  1.46108  0.00000
0.7820  1.46106  0.00000
0.7836  1.46103  0.00000
0.7852  1.46101  0.00000
0.7868  1.46098  0.00000
0.7883  1.46096  0.00000
0.7899  1.46094  0.00000
0.7915  1.46091  0.00000
0.7931  1.46089  0.00000
0.7946  1.46086  0.00000
0.7962  1.46084  0.00000
0.7978  1.46082  0.00000
0.7994  1.46079  0.00000
0.8010  1.46077  0.00000
0.8025  1.46074  0.00000
0.8041  1.46072  0.00000
0.8057  1.46070  0.00000
0.8073  1.46068  0.00000
0.8088  1.46065  0.00000
0.8104  1.46063  0.00000
0.8120  1.46061  0.00000
0.8136  1.46059  0.00000
0.8151  1.46056  0.00000
0.8167  1.46054  0.00000
0.8183  1.46052  0.00000
0.8199  1.46050  0.00000
0.8214  1.46048  0.00000
0.8230  1.46046  0.00000
0.8246  1.46043  0.00000
0.8262  1.46041  0.00000
0.8277  1.46039  0.00000
0.8293  1.46037  0.00000
0.8309  1.46035  0.00000
0.8325  1.46033  0.00000
0.8340  1.46031  0.00000
0.8356  1.46029  0.00000
0.8372  1.46027  0.00000
0.8388  1.46025  0.00000
0.8403  1.46023  0.00000
0.8419  1.46021  0.00000
0.8435  1.46019  0.00000
0.8451  1.46017  0.00000
0.8466  1.46015  0.00000
0.8482  1.46013  0.00000
0.8498  1.46011  0.00000
0.8513  1.46009  0.00000
0.8529  1.46007  0.00000
0.8545  1.46005  0.00000
0.8561  1.46003  0.00000
0.8576  1.46001  0.00000
0.8592  1.45999  0.00000
0.8608  1.45997  0.00000
0.8624  1.45995  0.00000
0.8639  1.45994  0.00000
0.8655  1.45992  0.00000
0.8671  1.45990  0.00000
0.8686  1.45988  0.00000
0.8702  1.45986  0.00000
0.8718  1.45985  0.00000
0.8733  1.45983  0.00000
0.8749  1.45981  0.00000
0.8765  1.45979  0.00000
0.8781  1.45977  0.00000
0.8796  1.45976  0.00000
0.8812  1.45974  0.00000
0.8828  1.45972  0.00000
0.8843  1.45970  0.00000
0.8859  1.45969  0.00000
0.8875  1.45967  0.00000
0.8890  1.45965  0.00000
0.8906  1.45964  0.00000
0.8922  1.45962  0.00000
0.8938  1.45960  0.00000
0.8953  1.45958  0.00000
0.8969  1.45957  0.00000
0.8985  1.45955  0.00000
0.9000  1.45954  0.00000
0.9016  1.45952  0.00000
0.9032  1.45950  0.00000
0.9047  1.45949  0.00000
0.9063  1.45947  0.00000
0.9079  1.45945  0.00000
0.9094  1.45944  0.00000
0.9110  1.45942  0.00000
0.9126  1.45941  0.00000
0.9141  1.45939  0.00000
0.9157  1.45938  0.00000
0.9173  1.45936  0.00000
0.9188  1.45935  0.00000
0.9204  1.45933  0.00000
0.9220  1.45931  0.00000
0.9235  1.45930  0.00000
0.9251  1.45928  0.00000
0.9267  1.45927  0.00000
0.9282  1.45925  0.00000
0.9298  1.45924  0.00000
0.9314  1.45922  0.00000
0.9329  1.45921  0.00000
0.9345  1.45920  0.00000
0.9360  1.45918  0.00000
0.9376  1.45917  0.00000
0.9392  1.45915  0.00000
0.9407  1.45914  0.00000
0.9423  1.45912  0.00000
0.9439  1.45911  0.00000
0.9454  1.45910  0.00000
0.9470  1.45908  0.00000
0.9486  1.45907  0.00000
0.9501  1.45905  0.00000
0.9517  1.45904  0.00000
0.9532  1.45903  0.00000
0.9548  1.45901  0.00000
0.9564  1.45900  0.00000
0.9579  1.45899  0.00000
0.9595  1.45897  0.00000
0.9610  1.45896  0.00000
0.9626  1.45894  0.00000
0.9642  1.45893  0.00000
0.9657  1.45892  0.00000
0.9673  1.45891  0.00000
0.9688  1.45889  0.00000
0.9704  1.45888  0.00000
0.9720  1.45887  0.00000
0.9735  1.45885  0.00000
0.9751  1.45884  0.00000
0.9766  1.45883  0.00000
0.9782  1.45882  0.00000
0.9798  1.45880  0.00000
0.9813  1.45879  0.00000
0.9829  1.45878  0.00000
0.9844  1.45877  0.00000
0.9860  1.45875  0.00000
0.9876  1.45874  0.00000
0.9891  1.45873  0.00000
0.9907  1.45872  0.00000
0.9922  1.45870  0.00000
0.9938  1.45869  0.00000
0.9953  1.45868  0.00000
0.9969  1.45867  0.00000
0.9985  1.45866  0.00000
1.0118  1.45856  0.00000
1.0152  1.45853  0.00000
1.0186  1.45851  0.00000
1.0220  1.45848  0.00000
1.0254  1.45846  0.00000
1.0288  1.45843  0.00000
1.0322  1.45841  0.00000
1.0356  1.45839  0.00000
1.0390  1.45836  0.00000
1.0424  1.45834  0.00000
1.0458  1.45832  0.00000
1.0492  1.45830  0.00000
1.0526  1.45827  0.00000
1.0560  1.45825  0.00000
1.0594  1.45823  0.00000
1.0628  1.45821  0.00000
1.0662  1.45819  0.00000
1.0696  1.45817  0.00000
1.0730  1.45815  0.00000
1.0764  1.45812  0.00000
1.0798  1.45810  0.00000
1.0832  1.45808  0.00000
1.0866  1.45806  0.00000
1.0900  1.45804  0.00000
1.0934  1.45802  0.00000
1.0968  1.45800  0.00000
1.1002  1.45798  0.00000
1.1036  1.45796  0.00000
1.1070  1.45795  0.00000
1.1104  1.45793  0.00000
1.1138  1.45791  0.00000
1.1173  1.45789  0.00000
1.1207  1.45787  0.00000
1.1241  1.45785  0.00000
1.1275  1.45783  0.00000
1.1309  1.45782  0.00000
1.1343  1.45780  0.00000
1.1377  1.45778  0.00000
1.1411  1.45776  0.00000
1.1445  1.45775  0.00000
1.1479  1.45773  0.00000
1.1514  1.45771  0.00000
1.1548  1.45769  0.00000
1.1582  1.45768  0.00000
1.1616  1.45766  0.00000
1.1650  1.45764  0.00000
1.1684  1.45763  0.00000
1.1718  1.45761  0.00000
1.1753  1.45759  0.00000
1.1787  1.45758  0.00000
1.1821  1.45756  0.00000
1.1855  1.45755  0.00000
1.1889  1.45753  0.00000
1.1923  1.45752  0.00000
1.1958  1.45750  0.00000
1.1992  1.45749  0.00000
1.2026  1.45747  0.00000
1.2060  1.45746  0.00000
1.2094  1.45744  0.00000
1.2129  1.45743  0.00000
1.2163  1.45741  0.00000
1.2197  1.45740  0.00000
1.2231  1.45738  0.00000
1.2265  1.45737  0.00000
1.2300  1.45735  0.00000
1.2334  1.45734  0.00000
1.2368  1.45733  0.00000
1.2402  1.45731  0.00000
1.2437  1.45730  0.00000
1.2471  1.45729  0.00000
1.2505  1.45727  0.00000
1.2539  1.45726  0.00000
1.2574  1.45725  0.00000
1.2608  1.45723  0.00000
1.2642  1.45722  0.00000
1.2676  1.45721  0.00000
1.2711  1.45720  0.00000
1.2745  1.45718  0.00000
1.2779  1.45717  0.00000
1.2814  1.45716  0.00000
1.2848  1.45715  0.00000
1.2882  1.45713  0.00000
1.2916  1.45712  0.00000
1.2951  1.45711  0.00000
1.2985  1.45710  0.00000
1.3019  1.45708  0.00000
1.3054  1.45707  0.00000
1.3088  1.45706  0.00000
1.3122  1.45705  0.00000
1.3157  1.45704  0.00000
1.3191  1.45703  0.00000
1.3225  1.45702  0.00000
1.3260  1.45701  0.00000
1.3294  1.45699  0.00000
1.3329  1.45698  0.00000
1.3363  1.45697  0.00000
1.3397  1.45696  0.00000
1.3432  1.45695  0.00000
1.3466  1.45694  0.00000
1.3500  1.45693  0.00000
1.3535  1.45692  0.00000
1.3569  1.45691  0.00000
1.3604  1.45690  0.00000
1.3638  1.45689  0.00000
1.3672  1.45688  0.00000
1.3707  1.45687  0.00000
1.3741  1.45686  0.00000
1.3776  1.45685  0.00000
1.3810  1.45684  0.00000
1.3844  1.45683  0.00000
1.3879  1.45682  0.00000
1.3913  1.45681  0.00000
1.3948  1.45680  0.00000
1.3982  1.45679  0.00000
1.4017  1.45678  0.00000
1.4051  1.45677  0.00000
1.4086  1.45676  0.00000
1.4120  1.45675  0.00000
1.4155  1.45674  0.00000
1.4189  1.45673  0.00000
1.4224  1.45672  0.00000
1.4258  1.45671  0.00000
1.4292  1.45670  0.00000
1.4327  1.45670  0.00000
1.4361  1.45669  0.00000
1.4396  1.45668  0.00000
1.4430  1.45667  0.00000
1.4465  1.45666  0.00000
1.4500  1.45665  0.00000
1.4534  1.45664  0.00000
1.4569  1.45663  0.00000
1.4603  1.45663  0.00000
1.4638  1.45662  0.00000
1.4672  1.45661  0.00000
1.4707  1.45660  0.00000
1.4741  1.45659  0.00000
1.4776  1.45658  0.00000
1.4810  1.45658  0.00000
1.4845  1.45657  0.00000
1.4879  1.45656  0.00000
1.4914  1.45655  0.00000
1.4949  1.45654  0.00000
1.4983  1.45654  0.00000
